############################################################### 
#  K-distribution characterization file to be used in ARTDECO 
################################################################ 
#            GAME coefficients   
# Maximum encounter number of (ai,ki) over the different bands and species (this will serve as an array dimension) 
 15
#################################
# Number of gas species
 10
# gas species    concentration dependency (0/1)            add continuum  
         h2o     0         continuum_flag
         co2     0         continuum_flag
          o3     0         continuum_flag
          o2     0         continuum_flag
          n2     0         continuum_flag
         ch4     0         continuum_flag
          co     0         continuum_flag
         no2     0         continuum_flag
         so2     0         continuum_flag
         n2o     0         continuum_flag
################################# 
#      WAVELENGTH BANDS 
# number of bands : 
 2490
# band  center, min, max wavelengths (microns) 
      1     0.200401       0.200000       0.200803    
      2     0.201207       0.200803       0.201613    
      3     0.202020       0.201613       0.202429    
      4     0.202840       0.202429       0.203252    
      5     0.203666       0.203252       0.204082    
      6     0.204499       0.204082       0.204918    
      7     0.205339       0.204918       0.205761    
      8     0.206186       0.205761       0.206612    
      9     0.207039       0.206612       0.207469    
     10     0.207900       0.207469       0.208333    
     11     0.208768       0.208333       0.209205    
     12     0.209644       0.209205       0.210084    
     13     0.210526       0.210084       0.210970    
     14     0.211416       0.210970       0.211864    
     15     0.212314       0.211864       0.212766    
     16     0.213220       0.212766       0.213675    
     17     0.214133       0.213675       0.214592    
     18     0.215054       0.214592       0.215517    
     19     0.215983       0.215517       0.216450    
     20     0.216920       0.216450       0.217391    
     21     0.217865       0.217391       0.218341    
     22     0.218818       0.218341       0.219298    
     23     0.219780       0.219298       0.220264    
     24     0.220751       0.220264       0.221239    
     25     0.221729       0.221239       0.222222    
     26     0.222717       0.222222       0.223214    
     27     0.223714       0.223214       0.224215    
     28     0.224719       0.224215       0.225225    
     29     0.225734       0.225225       0.226244    
     30     0.226757       0.226244       0.227273    
     31     0.227790       0.227273       0.228310    
     32     0.228833       0.228310       0.229358    
     33     0.229885       0.229358       0.230415    
     34     0.230947       0.230415       0.231481    
     35     0.232019       0.231481       0.232558    
     36     0.233100       0.232558       0.233645    
     37     0.234192       0.233645       0.234742    
     38     0.235294       0.234742       0.235849    
     39     0.236407       0.235849       0.236967    
     40     0.237530       0.236967       0.238095    
     41     0.238663       0.238095       0.239234    
     42     0.239808       0.239234       0.240385    
     43     0.240964       0.240385       0.241546    
     44     0.242131       0.241546       0.242718    
     45     0.243309       0.242718       0.243902    
     46     0.244499       0.243902       0.245098    
     47     0.245700       0.245098       0.246305    
     48     0.246914       0.246305       0.247525    
     49     0.248139       0.247525       0.248756    
     50     0.249377       0.248756       0.250000    
     51     0.250627       0.250000       0.251256    
     52     0.251889       0.251256       0.252525    
     53     0.253165       0.252525       0.253807    
     54     0.254453       0.253807       0.255102    
     55     0.255754       0.255102       0.256410    
     56     0.257069       0.256410       0.257732    
     57     0.258398       0.257732       0.259067    
     58     0.259740       0.259067       0.260417    
     59     0.261097       0.260417       0.261780    
     60     0.262467       0.261780       0.263158    
     61     0.263852       0.263158       0.264550    
     62     0.265252       0.264550       0.265957    
     63     0.266667       0.265957       0.267380    
     64     0.268097       0.267380       0.268817    
     65     0.269542       0.268817       0.270270    
     66     0.271003       0.270270       0.271739    
     67     0.272480       0.271739       0.273224    
     68     0.273973       0.273224       0.274725    
     69     0.275482       0.274725       0.276243    
     70     0.277008       0.276243       0.277778    
     71     0.278552       0.277778       0.279330    
     72     0.280112       0.279330       0.280899    
     73     0.281690       0.280899       0.282486    
     74     0.283286       0.282486       0.284091    
     75     0.284900       0.284091       0.285714    
     76     0.286533       0.285714       0.287356    
     77     0.288184       0.287356       0.289017    
     78     0.289855       0.289017       0.290698    
     79     0.291545       0.290698       0.292398    
     80     0.293255       0.292398       0.294118    
     81     0.294985       0.294118       0.295858    
     82     0.296736       0.295858       0.297619    
     83     0.298507       0.297619       0.299401    
     84     0.300300       0.299401       0.301205    
     85     0.302115       0.301205       0.303030    
     86     0.303951       0.303030       0.304878    
     87     0.305810       0.304878       0.306748    
     88     0.307692       0.306748       0.308642    
     89     0.309598       0.308642       0.310559    
     90     0.311526       0.310559       0.312500    
     91     0.313480       0.312500       0.314465    
     92     0.315457       0.314465       0.316456    
     93     0.317460       0.316456       0.318471    
     94     0.319489       0.318471       0.320513    
     95     0.321543       0.320513       0.322581    
     96     0.323625       0.322581       0.324675    
     97     0.325733       0.324675       0.326797    
     98     0.327869       0.326797       0.328947    
     99     0.330033       0.328947       0.331126    
    100     0.332226       0.331126       0.333333    
    101     0.334448       0.333333       0.335570    
    102     0.336700       0.335570       0.337838    
    103     0.338983       0.337838       0.340136    
    104     0.341297       0.340136       0.342466    
    105     0.343643       0.342466       0.344828    
    106     0.346021       0.344828       0.347222    
    107     0.348432       0.347222       0.349650    
    108     0.350877       0.349650       0.352113    
    109     0.353357       0.352113       0.354610    
    110     0.355872       0.354610       0.357143    
    111     0.358423       0.357143       0.359712    
    112     0.361011       0.359712       0.362319    
    113     0.363636       0.362319       0.364964    
    114     0.366300       0.364964       0.367647    
    115     0.369004       0.367647       0.370370    
    116     0.371747       0.370370       0.373134    
    117     0.374532       0.373134       0.375940    
    118     0.377358       0.375940       0.378788    
    119     0.380228       0.378788       0.381679    
    120     0.383142       0.381679       0.384615    
    121     0.386100       0.384615       0.387597    
    122     0.389105       0.387597       0.390625    
    123     0.392157       0.390625       0.393701    
    124     0.395257       0.393701       0.396825    
    125     0.398406       0.396825       0.400000    
    126     0.400080       0.400000       0.400160    
    127     0.400240       0.400160       0.400320    
    128     0.400400       0.400320       0.400481    
    129     0.400561       0.400481       0.400641    
    130     0.400721       0.400641       0.400802    
    131     0.400882       0.400802       0.400962    
    132     0.401043       0.400962       0.401123    
    133     0.401204       0.401123       0.401284    
    134     0.401365       0.401284       0.401445    
    135     0.401526       0.401445       0.401606    
    136     0.401687       0.401606       0.401768    
    137     0.401848       0.401768       0.401929    
    138     0.402010       0.401929       0.402091    
    139     0.402172       0.402091       0.402253    
    140     0.402334       0.402253       0.402415    
    141     0.402495       0.402415       0.402576    
    142     0.402658       0.402576       0.402739    
    143     0.402820       0.402739       0.402901    
    144     0.402982       0.402901       0.403063    
    145     0.403145       0.403063       0.403226    
    146     0.403307       0.403226       0.403388    
    147     0.403470       0.403388       0.403551    
    148     0.403633       0.403551       0.403714    
    149     0.403796       0.403714       0.403877    
    150     0.403959       0.403877       0.404040    
    151     0.404122       0.404040       0.404204    
    152     0.404285       0.404204       0.404367    
    153     0.404449       0.404367       0.404531    
    154     0.404613       0.404531       0.404694    
    155     0.404776       0.404694       0.404858    
    156     0.404940       0.404858       0.405022    
    157     0.405104       0.405022       0.405186    
    158     0.405268       0.405186       0.405351    
    159     0.405433       0.405351       0.405515    
    160     0.405597       0.405515       0.405680    
    161     0.405762       0.405680       0.405844    
    162     0.405927       0.405844       0.406009    
    163     0.406091       0.406009       0.406174    
    164     0.406256       0.406174       0.406339    
    165     0.406421       0.406339       0.406504    
    166     0.406587       0.406504       0.406669    
    167     0.406752       0.406669       0.406835    
    168     0.406918       0.406835       0.407000    
    169     0.407083       0.407000       0.407166    
    170     0.407249       0.407166       0.407332    
    171     0.407415       0.407332       0.407498    
    172     0.407581       0.407498       0.407664    
    173     0.407747       0.407664       0.407830    
    174     0.407914       0.407830       0.407997    
    175     0.408080       0.407997       0.408163    
    176     0.408247       0.408163       0.408330    
    177     0.408413       0.408330       0.408497    
    178     0.408580       0.408497       0.408664    
    179     0.408747       0.408664       0.408831    
    180     0.408914       0.408831       0.408998    
    181     0.409082       0.408998       0.409165    
    182     0.409249       0.409165       0.409333    
    183     0.409417       0.409333       0.409500    
    184     0.409584       0.409500       0.409668    
    185     0.409752       0.409668       0.409836    
    186     0.409920       0.409836       0.410004    
    187     0.410088       0.410004       0.410172    
    188     0.410256       0.410172       0.410341    
    189     0.410425       0.410341       0.410509    
    190     0.410593       0.410509       0.410678    
    191     0.410762       0.410678       0.410846    
    192     0.410931       0.410846       0.411015    
    193     0.411100       0.411015       0.411184    
    194     0.411269       0.411184       0.411353    
    195     0.411438       0.411353       0.411523    
    196     0.411607       0.411523       0.411692    
    197     0.411777       0.411692       0.411862    
    198     0.411946       0.411862       0.412031    
    199     0.412116       0.412031       0.412201    
    200     0.412286       0.412201       0.412371    
    201     0.412456       0.412371       0.412541    
    202     0.412626       0.412541       0.412712    
    203     0.412797       0.412712       0.412882    
    204     0.412967       0.412882       0.413052    
    205     0.413138       0.413052       0.413223    
    206     0.413309       0.413223       0.413394    
    207     0.413479       0.413394       0.413565    
    208     0.413650       0.413565       0.413736    
    209     0.413822       0.413736       0.413907    
    210     0.413993       0.413907       0.414079    
    211     0.414164       0.414079       0.414250    
    212     0.414336       0.414250       0.414422    
    213     0.414508       0.414422       0.414594    
    214     0.414680       0.414594       0.414766    
    215     0.414852       0.414766       0.414938    
    216     0.415024       0.414938       0.415110    
    217     0.415196       0.415110       0.415282    
    218     0.415369       0.415282       0.415455    
    219     0.415541       0.415455       0.415628    
    220     0.415714       0.415628       0.415800    
    221     0.415887       0.415800       0.415973    
    222     0.416060       0.415973       0.416146    
    223     0.416233       0.416146       0.416320    
    224     0.416406       0.416320       0.416493    
    225     0.416580       0.416493       0.416667    
    226     0.416754       0.416667       0.416840    
    227     0.416927       0.416840       0.417014    
    228     0.417101       0.417014       0.417188    
    229     0.417275       0.417188       0.417362    
    230     0.417449       0.417362       0.417537    
    231     0.417624       0.417537       0.417711    
    232     0.417798       0.417711       0.417886    
    233     0.417973       0.417886       0.418060    
    234     0.418148       0.418060       0.418235    
    235     0.418323       0.418235       0.418410    
    236     0.418498       0.418410       0.418585    
    237     0.418673       0.418585       0.418760    
    238     0.418848       0.418760       0.418936    
    239     0.419024       0.418936       0.419111    
    240     0.419199       0.419111       0.419287    
    241     0.419375       0.419287       0.419463    
    242     0.419551       0.419463       0.419639    
    243     0.419727       0.419639       0.419815    
    244     0.419903       0.419815       0.419992    
    245     0.420080       0.419992       0.420168    
    246     0.420256       0.420168       0.420345    
    247     0.420433       0.420345       0.420521    
    248     0.420610       0.420521       0.420698    
    249     0.420787       0.420698       0.420875    
    250     0.420964       0.420875       0.421053    
    251     0.421141       0.421053       0.421230    
    252     0.421319       0.421230       0.421407    
    253     0.421496       0.421407       0.421585    
    254     0.421674       0.421585       0.421763    
    255     0.421852       0.421763       0.421941    
    256     0.422030       0.421941       0.422119    
    257     0.422208       0.422119       0.422297    
    258     0.422386       0.422297       0.422476    
    259     0.422565       0.422476       0.422654    
    260     0.422744       0.422654       0.422833    
    261     0.422922       0.422833       0.423012    
    262     0.423101       0.423012       0.423191    
    263     0.423280       0.423191       0.423370    
    264     0.423460       0.423370       0.423549    
    265     0.423639       0.423549       0.423729    
    266     0.423819       0.423729       0.423908    
    267     0.423998       0.423908       0.424088    
    268     0.424178       0.424088       0.424268    
    269     0.424358       0.424268       0.424448    
    270     0.424538       0.424448       0.424628    
    271     0.424719       0.424628       0.424809    
    272     0.424899       0.424809       0.424989    
    273     0.425080       0.424989       0.425170    
    274     0.425260       0.425170       0.425351    
    275     0.425441       0.425351       0.425532    
    276     0.425622       0.425532       0.425713    
    277     0.425804       0.425713       0.425894    
    278     0.425985       0.425894       0.426076    
    279     0.426167       0.426076       0.426257    
    280     0.426348       0.426257       0.426439    
    281     0.426530       0.426439       0.426621    
    282     0.426712       0.426621       0.426803    
    283     0.426894       0.426803       0.426985    
    284     0.427077       0.426985       0.427168    
    285     0.427259       0.427168       0.427350    
    286     0.427442       0.427350       0.427533    
    287     0.427625       0.427533       0.427716    
    288     0.427807       0.427716       0.427899    
    289     0.427991       0.427899       0.428082    
    290     0.428174       0.428082       0.428266    
    291     0.428357       0.428266       0.428449    
    292     0.428541       0.428449       0.428633    
    293     0.428725       0.428633       0.428816    
    294     0.428908       0.428816       0.429000    
    295     0.429092       0.429000       0.429185    
    296     0.429277       0.429185       0.429369    
    297     0.429461       0.429369       0.429553    
    298     0.429646       0.429553       0.429738    
    299     0.429830       0.429738       0.429923    
    300     0.430015       0.429923       0.430108    
    301     0.430200       0.430108       0.430293    
    302     0.430385       0.430293       0.430478    
    303     0.430571       0.430478       0.430663    
    304     0.430756       0.430663       0.430849    
    305     0.430942       0.430849       0.431034    
    306     0.431127       0.431034       0.431220    
    307     0.431313       0.431220       0.431406    
    308     0.431499       0.431406       0.431593    
    309     0.431686       0.431593       0.431779    
    310     0.431872       0.431779       0.431965    
    311     0.432059       0.431965       0.432152    
    312     0.432246       0.432152       0.432339    
    313     0.432432       0.432339       0.432526    
    314     0.432620       0.432526       0.432713    
    315     0.432807       0.432713       0.432900    
    316     0.432994       0.432900       0.433088    
    317     0.433182       0.433088       0.433276    
    318     0.433369       0.433276       0.433463    
    319     0.433557       0.433463       0.433651    
    320     0.433745       0.433651       0.433839    
    321     0.433934       0.433839       0.434028    
    322     0.434122       0.434028       0.434216    
    323     0.434311       0.434216       0.434405    
    324     0.434499       0.434405       0.434594    
    325     0.434688       0.434594       0.434783    
    326     0.434877       0.434783       0.434972    
    327     0.435066       0.434972       0.435161    
    328     0.435256       0.435161       0.435350    
    329     0.435445       0.435350       0.435540    
    330     0.435635       0.435540       0.435730    
    331     0.435825       0.435730       0.435920    
    332     0.436015       0.435920       0.436110    
    333     0.436205       0.436110       0.436300    
    334     0.436395       0.436300       0.436491    
    335     0.436586       0.436491       0.436681    
    336     0.436777       0.436681       0.436872    
    337     0.436967       0.436872       0.437063    
    338     0.437158       0.437063       0.437254    
    339     0.437350       0.437254       0.437445    
    340     0.437541       0.437445       0.437637    
    341     0.437733       0.437637       0.437828    
    342     0.437924       0.437828       0.438020    
    343     0.438116       0.438020       0.438212    
    344     0.438308       0.438212       0.438404    
    345     0.438500       0.438404       0.438596    
    346     0.438693       0.438596       0.438789    
    347     0.438885       0.438789       0.438982    
    348     0.439078       0.438982       0.439174    
    349     0.439271       0.439174       0.439367    
    350     0.439464       0.439367       0.439560    
    351     0.439657       0.439560       0.439754    
    352     0.439850       0.439754       0.439947    
    353     0.440044       0.439947       0.440141    
    354     0.440238       0.440141       0.440335    
    355     0.440432       0.440335       0.440529    
    356     0.440626       0.440529       0.440723    
    357     0.440820       0.440723       0.440917    
    358     0.441014       0.440917       0.441112    
    359     0.441209       0.441112       0.441306    
    360     0.441404       0.441306       0.441501    
    361     0.441599       0.441501       0.441696    
    362     0.441794       0.441696       0.441891    
    363     0.441989       0.441891       0.442087    
    364     0.442184       0.442087       0.442282    
    365     0.442380       0.442282       0.442478    
    366     0.442576       0.442478       0.442674    
    367     0.442772       0.442674       0.442870    
    368     0.442968       0.442870       0.443066    
    369     0.443164       0.443066       0.443262    
    370     0.443361       0.443262       0.443459    
    371     0.443557       0.443459       0.443656    
    372     0.443754       0.443656       0.443853    
    373     0.443951       0.443853       0.444050    
    374     0.444148       0.444050       0.444247    
    375     0.444346       0.444247       0.444444    
    376     0.444543       0.444444       0.444642    
    377     0.444741       0.444642       0.444840    
    378     0.444939       0.444840       0.445038    
    379     0.445137       0.445038       0.445236    
    380     0.445335       0.445236       0.445434    
    381     0.445534       0.445434       0.445633    
    382     0.445732       0.445633       0.445831    
    383     0.445931       0.445831       0.446030    
    384     0.446130       0.446030       0.446229    
    385     0.446329       0.446229       0.446429    
    386     0.446528       0.446429       0.446628    
    387     0.446728       0.446628       0.446828    
    388     0.446927       0.446828       0.447027    
    389     0.447127       0.447027       0.447227    
    390     0.447327       0.447227       0.447427    
    391     0.447527       0.447427       0.447628    
    392     0.447728       0.447628       0.447828    
    393     0.447928       0.447828       0.448029    
    394     0.448129       0.448029       0.448229    
    395     0.448330       0.448229       0.448430    
    396     0.448531       0.448430       0.448632    
    397     0.448732       0.448632       0.448833    
    398     0.448934       0.448833       0.449035    
    399     0.449135       0.449035       0.449236    
    400     0.449337       0.449236       0.449438    
    401     0.449539       0.449438       0.449640    
    402     0.449741       0.449640       0.449843    
    403     0.449944       0.449843       0.450045    
    404     0.450146       0.450045       0.450248    
    405     0.450349       0.450248       0.450450    
    406     0.450552       0.450450       0.450653    
    407     0.450755       0.450653       0.450857    
    408     0.450958       0.450857       0.451060    
    409     0.451162       0.451060       0.451264    
    410     0.451365       0.451264       0.451467    
    411     0.451569       0.451467       0.451671    
    412     0.451773       0.451671       0.451875    
    413     0.451977       0.451875       0.452080    
    414     0.452182       0.452080       0.452284    
    415     0.452386       0.452284       0.452489    
    416     0.452591       0.452489       0.452694    
    417     0.452796       0.452694       0.452899    
    418     0.453001       0.452899       0.453104    
    419     0.453206       0.453104       0.453309    
    420     0.453412       0.453309       0.453515    
    421     0.453618       0.453515       0.453721    
    422     0.453823       0.453721       0.453926    
    423     0.454030       0.453926       0.454133    
    424     0.454236       0.454133       0.454339    
    425     0.454442       0.454339       0.454545    
    426     0.454649       0.454545       0.454752    
    427     0.454856       0.454752       0.454959    
    428     0.455063       0.454959       0.455166    
    429     0.455270       0.455166       0.455373    
    430     0.455477       0.455373       0.455581    
    431     0.455685       0.455581       0.455789    
    432     0.455892       0.455789       0.455996    
    433     0.456100       0.455996       0.456204    
    434     0.456308       0.456204       0.456413    
    435     0.456517       0.456413       0.456621    
    436     0.456725       0.456621       0.456830    
    437     0.456934       0.456830       0.457038    
    438     0.457143       0.457038       0.457247    
    439     0.457352       0.457247       0.457457    
    440     0.457561       0.457457       0.457666    
    441     0.457771       0.457666       0.457875    
    442     0.457980       0.457875       0.458085    
    443     0.458190       0.458085       0.458295    
    444     0.458400       0.458295       0.458505    
    445     0.458610       0.458505       0.458716    
    446     0.458821       0.458716       0.458926    
    447     0.459031       0.458926       0.459137    
    448     0.459242       0.459137       0.459348    
    449     0.459453       0.459348       0.459559    
    450     0.459664       0.459559       0.459770    
    451     0.459876       0.459770       0.459982    
    452     0.460087       0.459982       0.460193    
    453     0.460299       0.460193       0.460405    
    454     0.460511       0.460405       0.460617    
    455     0.460723       0.460617       0.460829    
    456     0.460936       0.460829       0.461042    
    457     0.461148       0.461042       0.461255    
    458     0.461361       0.461255       0.461467    
    459     0.461574       0.461467       0.461681    
    460     0.461787       0.461681       0.461894    
    461     0.462000       0.461894       0.462107    
    462     0.462214       0.462107       0.462321    
    463     0.462428       0.462321       0.462535    
    464     0.462642       0.462535       0.462749    
    465     0.462856       0.462749       0.462963    
    466     0.463070       0.462963       0.463177    
    467     0.463285       0.463177       0.463392    
    468     0.463499       0.463392       0.463607    
    469     0.463714       0.463607       0.463822    
    470     0.463929       0.463822       0.464037    
    471     0.464145       0.464037       0.464253    
    472     0.464360       0.464253       0.464468    
    473     0.464576       0.464468       0.464684    
    474     0.464792       0.464684       0.464900    
    475     0.465008       0.464900       0.465116    
    476     0.465224       0.465116       0.465333    
    477     0.465441       0.465333       0.465549    
    478     0.465658       0.465549       0.465766    
    479     0.465875       0.465766       0.465983    
    480     0.466092       0.465983       0.466200    
    481     0.466309       0.466200       0.466418    
    482     0.466527       0.466418       0.466636    
    483     0.466744       0.466636       0.466853    
    484     0.466962       0.466853       0.467071    
    485     0.467181       0.467071       0.467290    
    486     0.467399       0.467290       0.467508    
    487     0.467617       0.467508       0.467727    
    488     0.467836       0.467727       0.467946    
    489     0.468055       0.467946       0.468165    
    490     0.468274       0.468165       0.468384    
    491     0.468494       0.468384       0.468604    
    492     0.468713       0.468604       0.468823    
    493     0.468933       0.468823       0.469043    
    494     0.469153       0.469043       0.469263    
    495     0.469373       0.469263       0.469484    
    496     0.469594       0.469484       0.469704    
    497     0.469814       0.469704       0.469925    
    498     0.470035       0.469925       0.470146    
    499     0.470256       0.470146       0.470367    
    500     0.470478       0.470367       0.470588    
    501     0.470699       0.470588       0.470810    
    502     0.470921       0.470810       0.471032    
    503     0.471143       0.471032       0.471254    
    504     0.471365       0.471254       0.471476    
    505     0.471587       0.471476       0.471698    
    506     0.471809       0.471698       0.471921    
    507     0.472032       0.471921       0.472144    
    508     0.472255       0.472144       0.472367    
    509     0.472478       0.472367       0.472590    
    510     0.472701       0.472590       0.472813    
    511     0.472925       0.472813       0.473037    
    512     0.473149       0.473037       0.473261    
    513     0.473373       0.473261       0.473485    
    514     0.473597       0.473485       0.473709    
    515     0.473821       0.473709       0.473934    
    516     0.474046       0.473934       0.474158    
    517     0.474271       0.474158       0.474383    
    518     0.474496       0.474383       0.474608    
    519     0.474721       0.474608       0.474834    
    520     0.474947       0.474834       0.475059    
    521     0.475172       0.475059       0.475285    
    522     0.475398       0.475285       0.475511    
    523     0.475624       0.475511       0.475737    
    524     0.475851       0.475737       0.475964    
    525     0.476077       0.475964       0.476190    
    526     0.476304       0.476190       0.476417    
    527     0.476531       0.476417       0.476644    
    528     0.476758       0.476644       0.476872    
    529     0.476985       0.476872       0.477099    
    530     0.477213       0.477099       0.477327    
    531     0.477441       0.477327       0.477555    
    532     0.477669       0.477555       0.477783    
    533     0.477897       0.477783       0.478011    
    534     0.478126       0.478011       0.478240    
    535     0.478354       0.478240       0.478469    
    536     0.478583       0.478469       0.478698    
    537     0.478813       0.478698       0.478927    
    538     0.479042       0.478927       0.479157    
    539     0.479272       0.479157       0.479386    
    540     0.479501       0.479386       0.479616    
    541     0.479731       0.479616       0.479846    
    542     0.479962       0.479846       0.480077    
    543     0.480192       0.480077       0.480307    
    544     0.480423       0.480307       0.480538    
    545     0.480654       0.480538       0.480769    
    546     0.480885       0.480769       0.481000    
    547     0.481116       0.481000       0.481232    
    548     0.481348       0.481232       0.481464    
    549     0.481580       0.481464       0.481696    
    550     0.481812       0.481696       0.481928    
    551     0.482044       0.481928       0.482160    
    552     0.482276       0.482160       0.482393    
    553     0.482509       0.482393       0.482625    
    554     0.482742       0.482625       0.482859    
    555     0.482975       0.482859       0.483092    
    556     0.483209       0.483092       0.483325    
    557     0.483442       0.483325       0.483559    
    558     0.483676       0.483559       0.483793    
    559     0.483910       0.483793       0.484027    
    560     0.484144       0.484027       0.484262    
    561     0.484379       0.484262       0.484496    
    562     0.484614       0.484496       0.484731    
    563     0.484848       0.484731       0.484966    
    564     0.485084       0.484966       0.485201    
    565     0.485319       0.485201       0.485437    
    566     0.485555       0.485437       0.485673    
    567     0.485791       0.485673       0.485909    
    568     0.486027       0.485909       0.486145    
    569     0.486263       0.486145       0.486381    
    570     0.486500       0.486381       0.486618    
    571     0.486736       0.486618       0.486855    
    572     0.486973       0.486855       0.487092    
    573     0.487211       0.487092       0.487329    
    574     0.487448       0.487329       0.487567    
    575     0.487686       0.487567       0.487805    
    576     0.487924       0.487805       0.488043    
    577     0.488162       0.488043       0.488281    
    578     0.488400       0.488281       0.488520    
    579     0.488639       0.488520       0.488759    
    580     0.488878       0.488759       0.488998    
    581     0.489117       0.488998       0.489237    
    582     0.489356       0.489237       0.489476    
    583     0.489596       0.489476       0.489716    
    584     0.489836       0.489716       0.489956    
    585     0.490076       0.489956       0.490196    
    586     0.490316       0.490196       0.490436    
    587     0.490557       0.490436       0.490677    
    588     0.490798       0.490677       0.490918    
    589     0.491039       0.490918       0.491159    
    590     0.491280       0.491159       0.491400    
    591     0.491521       0.491400       0.491642    
    592     0.491763       0.491642       0.491884    
    593     0.492005       0.491884       0.492126    
    594     0.492247       0.492126       0.492368    
    595     0.492490       0.492368       0.492611    
    596     0.492732       0.492611       0.492854    
    597     0.492975       0.492854       0.493097    
    598     0.493218       0.493097       0.493340    
    599     0.493462       0.493340       0.493583    
    600     0.493705       0.493583       0.493827    
    601     0.493949       0.493827       0.494071    
    602     0.494193       0.494071       0.494315    
    603     0.494438       0.494315       0.494560    
    604     0.494682       0.494560       0.494805    
    605     0.494927       0.494805       0.495050    
    606     0.495172       0.495050       0.495295    
    607     0.495417       0.495295       0.495540    
    608     0.495663       0.495540       0.495786    
    609     0.495909       0.495786       0.496032    
    610     0.496155       0.496032       0.496278    
    611     0.496401       0.496278       0.496524    
    612     0.496648       0.496524       0.496771    
    613     0.496894       0.496771       0.497018    
    614     0.497141       0.497018       0.497265    
    615     0.497389       0.497265       0.497512    
    616     0.497636       0.497512       0.497760    
    617     0.497884       0.497760       0.498008    
    618     0.498132       0.498008       0.498256    
    619     0.498380       0.498256       0.498504    
    620     0.498629       0.498504       0.498753    
    621     0.498878       0.498753       0.499002    
    622     0.499127       0.499002       0.499251    
    623     0.499376       0.499251       0.499501    
    624     0.499625       0.499501       0.499750    
    625     0.499875       0.499750       0.500000    
    626     0.500125       0.500000       0.500250    
    627     0.500375       0.500250       0.500501    
    628     0.500626       0.500501       0.500751    
    629     0.500877       0.500751       0.501002    
    630     0.501128       0.501002       0.501253    
    631     0.501379       0.501253       0.501505    
    632     0.501630       0.501505       0.501756    
    633     0.501882       0.501756       0.502008    
    634     0.502134       0.502008       0.502260    
    635     0.502386       0.502260       0.502513    
    636     0.502639       0.502513       0.502765    
    637     0.502892       0.502765       0.503018    
    638     0.503145       0.503018       0.503271    
    639     0.503398       0.503271       0.503525    
    640     0.503651       0.503525       0.503778    
    641     0.503905       0.503778       0.504032    
    642     0.504159       0.504032       0.504286    
    643     0.504414       0.504286       0.504541    
    644     0.504668       0.504541       0.504796    
    645     0.504923       0.504796       0.505050    
    646     0.505178       0.505050       0.505306    
    647     0.505433       0.505306       0.505561    
    648     0.505689       0.505561       0.505817    
    649     0.505945       0.505817       0.506073    
    650     0.506201       0.506073       0.506329    
    651     0.506457       0.506329       0.506586    
    652     0.506714       0.506586       0.506842    
    653     0.506971       0.506842       0.507099    
    654     0.507228       0.507099       0.507357    
    655     0.507485       0.507357       0.507614    
    656     0.507743       0.507614       0.507872    
    657     0.508001       0.507872       0.508130    
    658     0.508259       0.508130       0.508388    
    659     0.508518       0.508388       0.508647    
    660     0.508776       0.508647       0.508906    
    661     0.509035       0.508906       0.509165    
    662     0.509295       0.509165       0.509424    
    663     0.509554       0.509424       0.509684    
    664     0.509814       0.509684       0.509944    
    665     0.510074       0.509944       0.510204    
    666     0.510334       0.510204       0.510465    
    667     0.510595       0.510465       0.510725    
    668     0.510856       0.510725       0.510986    
    669     0.511117       0.510986       0.511247    
    670     0.511378       0.511247       0.511509    
    671     0.511640       0.511509       0.511771    
    672     0.511902       0.511771       0.512033    
    673     0.512164       0.512033       0.512295    
    674     0.512426       0.512295       0.512558    
    675     0.512689       0.512558       0.512821    
    676     0.512952       0.512821       0.513084    
    677     0.513215       0.513084       0.513347    
    678     0.513479       0.513347       0.513611    
    679     0.513743       0.513611       0.513875    
    680     0.514007       0.513875       0.514139    
    681     0.514271       0.514139       0.514403    
    682     0.514536       0.514403       0.514668    
    683     0.514800       0.514668       0.514933    
    684     0.515066       0.514933       0.515198    
    685     0.515331       0.515198       0.515464    
    686     0.515597       0.515464       0.515730    
    687     0.515863       0.515730       0.515996    
    688     0.516129       0.515996       0.516262    
    689     0.516396       0.516262       0.516529    
    690     0.516662       0.516529       0.516796    
    691     0.516929       0.516796       0.517063    
    692     0.517197       0.517063       0.517331    
    693     0.517464       0.517331       0.517598    
    694     0.517732       0.517598       0.517866    
    695     0.518001       0.517866       0.518135    
    696     0.518269       0.518135       0.518403    
    697     0.518538       0.518403       0.518672    
    698     0.518807       0.518672       0.518941    
    699     0.519076       0.518941       0.519211    
    700     0.519346       0.519211       0.519481    
    701     0.519615       0.519481       0.519751    
    702     0.519886       0.519751       0.520021    
    703     0.520156       0.520021       0.520291    
    704     0.520427       0.520291       0.520562    
    705     0.520698       0.520562       0.520833    
    706     0.520969       0.520833       0.521105    
    707     0.521241       0.521105       0.521376    
    708     0.521512       0.521376       0.521648    
    709     0.521784       0.521648       0.521921    
    710     0.522057       0.521921       0.522193    
    711     0.522330       0.522193       0.522466    
    712     0.522603       0.522466       0.522739    
    713     0.522876       0.522739       0.523013    
    714     0.523149       0.523013       0.523286    
    715     0.523423       0.523286       0.523560    
    716     0.523697       0.523560       0.523834    
    717     0.523972       0.523834       0.524109    
    718     0.524246       0.524109       0.524384    
    719     0.524521       0.524384       0.524659    
    720     0.524797       0.524659       0.524934    
    721     0.525072       0.524934       0.525210    
    722     0.525348       0.525210       0.525486    
    723     0.525624       0.525486       0.525762    
    724     0.525901       0.525762       0.526039    
    725     0.526177       0.526039       0.526316    
    726     0.526454       0.526316       0.526593    
    727     0.526732       0.526593       0.526870    
    728     0.527009       0.526870       0.527148    
    729     0.527287       0.527148       0.527426    
    730     0.527565       0.527426       0.527704    
    731     0.527844       0.527704       0.527983    
    732     0.528123       0.527983       0.528262    
    733     0.528402       0.528262       0.528541    
    734     0.528681       0.528541       0.528821    
    735     0.528961       0.528821       0.529101    
    736     0.529241       0.529101       0.529381    
    737     0.529521       0.529381       0.529661    
    738     0.529801       0.529661       0.529942    
    739     0.530082       0.529942       0.530223    
    740     0.530363       0.530223       0.530504    
    741     0.530645       0.530504       0.530786    
    742     0.530926       0.530786       0.531067    
    743     0.531209       0.531067       0.531350    
    744     0.531491       0.531350       0.531632    
    745     0.531773       0.531632       0.531915    
    746     0.532056       0.531915       0.532198    
    747     0.532340       0.532198       0.532481    
    748     0.532623       0.532481       0.532765    
    749     0.532907       0.532765       0.533049    
    750     0.533191       0.533049       0.533333    
    751     0.533476       0.533333       0.533618    
    752     0.533760       0.533618       0.533903    
    753     0.534045       0.533903       0.534188    
    754     0.534331       0.534188       0.534474    
    755     0.534616       0.534474       0.534759    
    756     0.534902       0.534759       0.535046    
    757     0.535189       0.535046       0.535332    
    758     0.535475       0.535332       0.535619    
    759     0.535762       0.535619       0.535906    
    760     0.536049       0.535906       0.536193    
    761     0.536337       0.536193       0.536481    
    762     0.536625       0.536481       0.536769    
    763     0.536913       0.536769       0.537057    
    764     0.537201       0.537057       0.537346    
    765     0.537490       0.537346       0.537634    
    766     0.537779       0.537634       0.537924    
    767     0.538068       0.537924       0.538213    
    768     0.538358       0.538213       0.538503    
    769     0.538648       0.538503       0.538793    
    770     0.538938       0.538793       0.539084    
    771     0.539229       0.539084       0.539374    
    772     0.539520       0.539374       0.539665    
    773     0.539811       0.539665       0.539957    
    774     0.540103       0.539957       0.540249    
    775     0.540394       0.540249       0.540541    
    776     0.540687       0.540541       0.540833    
    777     0.540979       0.540833       0.541126    
    778     0.541272       0.541126       0.541418    
    779     0.541565       0.541418       0.541712    
    780     0.541859       0.541712       0.542005    
    781     0.542152       0.542005       0.542299    
    782     0.542446       0.542299       0.542594    
    783     0.542741       0.542594       0.542888    
    784     0.543036       0.542888       0.543183    
    785     0.543331       0.543183       0.543478    
    786     0.543626       0.543478       0.543774    
    787     0.543922       0.543774       0.544070    
    788     0.544218       0.544070       0.544366    
    789     0.544514       0.544366       0.544662    
    790     0.544811       0.544662       0.544959    
    791     0.545108       0.544959       0.545256    
    792     0.545405       0.545256       0.545554    
    793     0.545703       0.545554       0.545852    
    794     0.546001       0.545852       0.546150    
    795     0.546299       0.546150       0.546448    
    796     0.546597       0.546448       0.546747    
    797     0.546896       0.546747       0.547046    
    798     0.547196       0.547046       0.547345    
    799     0.547495       0.547345       0.547645    
    800     0.547795       0.547645       0.547945    
    801     0.548095       0.547945       0.548246    
    802     0.548396       0.548246       0.548546    
    803     0.548697       0.548546       0.548847    
    804     0.548998       0.548847       0.549149    
    805     0.549300       0.549149       0.549451    
    806     0.549602       0.549451       0.549753    
    807     0.549904       0.549753       0.550055    
    808     0.550206       0.550055       0.550358    
    809     0.550509       0.550358       0.550661    
    810     0.550812       0.550661       0.550964    
    811     0.551116       0.550964       0.551268    
    812     0.551420       0.551268       0.551572    
    813     0.551724       0.551572       0.551876    
    814     0.552029       0.551876       0.552181    
    815     0.552334       0.552181       0.552486    
    816     0.552639       0.552486       0.552792    
    817     0.552944       0.552792       0.553097    
    818     0.553250       0.553097       0.553403    
    819     0.553557       0.553403       0.553710    
    820     0.553863       0.553710       0.554017    
    821     0.554170       0.554017       0.554324    
    822     0.554477       0.554324       0.554631    
    823     0.554785       0.554631       0.554939    
    824     0.555093       0.554939       0.555247    
    825     0.555401       0.555247       0.555556    
    826     0.555710       0.555556       0.555864    
    827     0.556019       0.555864       0.556174    
    828     0.556328       0.556174       0.556483    
    829     0.556638       0.556483       0.556793    
    830     0.556948       0.556793       0.557103    
    831     0.557258       0.557103       0.557414    
    832     0.557569       0.557414       0.557724    
    833     0.557880       0.557724       0.558036    
    834     0.558191       0.558036       0.558347    
    835     0.558503       0.558347       0.558659    
    836     0.558815       0.558659       0.558971    
    837     0.559128       0.558971       0.559284    
    838     0.559441       0.559284       0.559597    
    839     0.559754       0.559597       0.559910    
    840     0.560067       0.559910       0.560224    
    841     0.560381       0.560224       0.560538    
    842     0.560695       0.560538       0.560852    
    843     0.561010       0.560852       0.561167    
    844     0.561325       0.561167       0.561482    
    845     0.561640       0.561482       0.561798    
    846     0.561956       0.561798       0.562114    
    847     0.562272       0.562114       0.562430    
    848     0.562588       0.562430       0.562746    
    849     0.562905       0.562746       0.563063    
    850     0.563222       0.563063       0.563380    
    851     0.563539       0.563380       0.563698    
    852     0.563857       0.563698       0.564016    
    853     0.564175       0.564016       0.564334    
    854     0.564493       0.564334       0.564653    
    855     0.564812       0.564653       0.564972    
    856     0.565131       0.564972       0.565291    
    857     0.565451       0.565291       0.565611    
    858     0.565771       0.565611       0.565931    
    859     0.566091       0.565931       0.566251    
    860     0.566412       0.566251       0.566572    
    861     0.566733       0.566572       0.566893    
    862     0.567054       0.566893       0.567215    
    863     0.567376       0.567215       0.567537    
    864     0.567698       0.567537       0.567859    
    865     0.568020       0.567859       0.568182    
    866     0.568343       0.568182       0.568505    
    867     0.568666       0.568505       0.568828    
    868     0.568990       0.568828       0.569152    
    869     0.569314       0.569152       0.569476    
    870     0.569638       0.569476       0.569801    
    871     0.569963       0.569801       0.570125    
    872     0.570288       0.570125       0.570451    
    873     0.570613       0.570451       0.570776    
    874     0.570939       0.570776       0.571102    
    875     0.571265       0.571102       0.571429    
    876     0.571592       0.571429       0.571755    
    877     0.571919       0.571755       0.572082    
    878     0.572246       0.572082       0.572410    
    879     0.572574       0.572410       0.572738    
    880     0.572902       0.572738       0.573066    
    881     0.573230       0.573066       0.573394    
    882     0.573559       0.573394       0.573723    
    883     0.573888       0.573723       0.574053    
    884     0.574218       0.574053       0.574383    
    885     0.574548       0.574383       0.574713    
    886     0.574878       0.574713       0.575043    
    887     0.575208       0.575043       0.575374    
    888     0.575540       0.575374       0.575705    
    889     0.575871       0.575705       0.576037    
    890     0.576203       0.576037       0.576369    
    891     0.576535       0.576369       0.576701    
    892     0.576868       0.576701       0.577034    
    893     0.577201       0.577034       0.577367    
    894     0.577534       0.577367       0.577701    
    895     0.577868       0.577701       0.578035    
    896     0.578202       0.578035       0.578369    
    897     0.578536       0.578369       0.578704    
    898     0.578871       0.578704       0.579039    
    899     0.579206       0.579039       0.579374    
    900     0.579542       0.579374       0.579710    
    901     0.579878       0.579710       0.580046    
    902     0.580215       0.580046       0.580383    
    903     0.580552       0.580383       0.580720    
    904     0.580889       0.580720       0.581058    
    905     0.581226       0.581058       0.581395    
    906     0.581564       0.581395       0.581734    
    907     0.581903       0.581734       0.582072    
    908     0.582242       0.582072       0.582411    
    909     0.582581       0.582411       0.582751    
    910     0.582920       0.582751       0.583090    
    911     0.583260       0.583090       0.583431    
    912     0.583601       0.583431       0.583771    
    913     0.583942       0.583771       0.584112    
    914     0.584283       0.584112       0.584454    
    915     0.584624       0.584454       0.584795    
    916     0.584966       0.584795       0.585137    
    917     0.585309       0.585137       0.585480    
    918     0.585652       0.585480       0.585823    
    919     0.585995       0.585823       0.586167    
    920     0.586338       0.586167       0.586510    
    921     0.586682       0.586510       0.586854    
    922     0.587027       0.586854       0.587199    
    923     0.587372       0.587199       0.587544    
    924     0.587717       0.587544       0.587889    
    925     0.588062       0.587889       0.588235    
    926     0.588408       0.588235       0.588582    
    927     0.588755       0.588582       0.588928    
    928     0.589102       0.588928       0.589275    
    929     0.589449       0.589275       0.589623    
    930     0.589797       0.589623       0.589971    
    931     0.590145       0.589971       0.590319    
    932     0.590493       0.590319       0.590667    
    933     0.590842       0.590667       0.591017    
    934     0.591191       0.591017       0.591366    
    935     0.591541       0.591366       0.591716    
    936     0.591891       0.591716       0.592066    
    937     0.592242       0.592066       0.592417    
    938     0.592593       0.592417       0.592768    
    939     0.592944       0.592768       0.593120    
    940     0.593296       0.593120       0.593472    
    941     0.593648       0.593472       0.593824    
    942     0.594001       0.593824       0.594177    
    943     0.594354       0.594177       0.594530    
    944     0.594707       0.594530       0.594884    
    945     0.595061       0.594884       0.595238    
    946     0.595415       0.595238       0.595593    
    947     0.595770       0.595593       0.595948    
    948     0.596125       0.595948       0.596303    
    949     0.596481       0.596303       0.596659    
    950     0.596837       0.596659       0.597015    
    951     0.597193       0.597015       0.597372    
    952     0.597550       0.597372       0.597729    
    953     0.597907       0.597729       0.598086    
    954     0.598265       0.598086       0.598444    
    955     0.598623       0.598444       0.598802    
    956     0.598982       0.598802       0.599161    
    957     0.599341       0.599161       0.599520    
    958     0.599700       0.599520       0.599880    
    959     0.600060       0.599880       0.600240    
    960     0.600420       0.600240       0.600601    
    961     0.600781       0.600601       0.600962    
    962     0.601142       0.600962       0.601323    
    963     0.601504       0.601323       0.601685    
    964     0.601866       0.601685       0.602047    
    965     0.602228       0.602047       0.602410    
    966     0.602591       0.602410       0.602773    
    967     0.602954       0.602773       0.603136    
    968     0.603318       0.603136       0.603500    
    969     0.603682       0.603500       0.603865    
    970     0.604047       0.603865       0.604230    
    971     0.604412       0.604230       0.604595    
    972     0.604778       0.604595       0.604961    
    973     0.605144       0.604961       0.605327    
    974     0.605510       0.605327       0.605694    
    975     0.605877       0.605694       0.606061    
    976     0.606244       0.606061       0.606428    
    977     0.606612       0.606428       0.606796    
    978     0.606980       0.606796       0.607165    
    979     0.607349       0.607165       0.607533    
    980     0.607718       0.607533       0.607903    
    981     0.608088       0.607903       0.608272    
    982     0.608458       0.608272       0.608643    
    983     0.608828       0.608643       0.609013    
    984     0.609199       0.609013       0.609385    
    985     0.609570       0.609385       0.609756    
    986     0.609942       0.609756       0.610128    
    987     0.610314       0.610128       0.610501    
    988     0.610687       0.610501       0.610874    
    989     0.611060       0.610874       0.611247    
    990     0.611434       0.611247       0.611621    
    991     0.611808       0.611621       0.611995    
    992     0.612182       0.611995       0.612370    
    993     0.612557       0.612370       0.612745    
    994     0.612933       0.612745       0.613121    
    995     0.613309       0.613121       0.613497    
    996     0.613685       0.613497       0.613874    
    997     0.614062       0.613874       0.614251    
    998     0.614439       0.614251       0.614628    
    999     0.614817       0.614628       0.615006    
   1000     0.615195       0.615006       0.615385    
   1001     0.615574       0.615385       0.615764    
   1002     0.615953       0.615764       0.616143    
   1003     0.616333       0.616143       0.616523    
   1004     0.616713       0.616523       0.616903    
   1005     0.617094       0.616903       0.617284    
   1006     0.617475       0.617284       0.617665    
   1007     0.617856       0.617665       0.618047    
   1008     0.618238       0.618047       0.618429    
   1009     0.618620       0.618429       0.618812    
   1010     0.619003       0.618812       0.619195    
   1011     0.619387       0.619195       0.619579    
   1012     0.619771       0.619579       0.619963    
   1013     0.620155       0.619963       0.620347    
   1014     0.620540       0.620347       0.620732    
   1015     0.620925       0.620732       0.621118    
   1016     0.621311       0.621118       0.621504    
   1017     0.621697       0.621504       0.621891    
   1018     0.622084       0.621891       0.622278    
   1019     0.622471       0.622278       0.622665    
   1020     0.622859       0.622665       0.623053    
   1021     0.623247       0.623053       0.623441    
   1022     0.623636       0.623441       0.623830    
   1023     0.624025       0.623830       0.624220    
   1024     0.624415       0.624220       0.624610    
   1025     0.624805       0.624610       0.625000    
   1026     0.625195       0.625000       0.625391    
   1027     0.625587       0.625391       0.625782    
   1028     0.625978       0.625782       0.626174    
   1029     0.626370       0.626174       0.626566    
   1030     0.626763       0.626566       0.626959    
   1031     0.627156       0.626959       0.627353    
   1032     0.627549       0.627353       0.627746    
   1033     0.627943       0.627746       0.628141    
   1034     0.628338       0.628141       0.628536    
   1035     0.628733       0.628536       0.628931    
   1036     0.629129       0.628931       0.629327    
   1037     0.629525       0.629327       0.629723    
   1038     0.629921       0.629723       0.630120    
   1039     0.630318       0.630120       0.630517    
   1040     0.630716       0.630517       0.630915    
   1041     0.631114       0.630915       0.631313    
   1042     0.631512       0.631313       0.631712    
   1043     0.631912       0.631712       0.632111    
   1044     0.632311       0.632111       0.632511    
   1045     0.632711       0.632511       0.632911    
   1046     0.633112       0.632911       0.633312    
   1047     0.633513       0.633312       0.633714    
   1048     0.633914       0.633714       0.634115    
   1049     0.634317       0.634115       0.634518    
   1050     0.634719       0.634518       0.634921    
   1051     0.635122       0.634921       0.635324    
   1052     0.635526       0.635324       0.635728    
   1053     0.635930       0.635728       0.636132    
   1054     0.636335       0.636132       0.636537    
   1055     0.636740       0.636537       0.636943    
   1056     0.637146       0.636943       0.637349    
   1057     0.637552       0.637349       0.637755    
   1058     0.637959       0.637755       0.638162    
   1059     0.638366       0.638162       0.638570    
   1060     0.638774       0.638570       0.638978    
   1061     0.639182       0.638978       0.639386    
   1062     0.639591       0.639386       0.639795    
   1063     0.640000       0.639795       0.640205    
   1064     0.640410       0.640205       0.640615    
   1065     0.640820       0.640615       0.641026    
   1066     0.641231       0.641026       0.641437    
   1067     0.641643       0.641437       0.641849    
   1068     0.642055       0.641849       0.642261    
   1069     0.642467       0.642261       0.642673    
   1070     0.642880       0.642673       0.643087    
   1071     0.643294       0.643087       0.643501    
   1072     0.643708       0.643501       0.643915    
   1073     0.644122       0.643915       0.644330    
   1074     0.644538       0.644330       0.644745    
   1075     0.644953       0.644745       0.645161    
   1076     0.645369       0.645161       0.645578    
   1077     0.645786       0.645578       0.645995    
   1078     0.646204       0.645995       0.646412    
   1079     0.646621       0.646412       0.646831    
   1080     0.647040       0.646831       0.647249    
   1081     0.647459       0.647249       0.647668    
   1082     0.647878       0.647668       0.648088    
   1083     0.648298       0.648088       0.648508    
   1084     0.648719       0.648508       0.648929    
   1085     0.649140       0.648929       0.649351    
   1086     0.649562       0.649351       0.649773    
   1087     0.649984       0.649773       0.650195    
   1088     0.650406       0.650195       0.650618    
   1089     0.650830       0.650618       0.651042    
   1090     0.651254       0.651042       0.651466    
   1091     0.651678       0.651466       0.651890    
   1092     0.652103       0.651890       0.652316    
   1093     0.652529       0.652316       0.652741    
   1094     0.652955       0.652741       0.653168    
   1095     0.653381       0.653168       0.653595    
   1096     0.653808       0.653595       0.654022    
   1097     0.654236       0.654022       0.654450    
   1098     0.654664       0.654450       0.654879    
   1099     0.655093       0.654879       0.655308    
   1100     0.655523       0.655308       0.655738    
   1101     0.655953       0.655738       0.656168    
   1102     0.656383       0.656168       0.656599    
   1103     0.656814       0.656599       0.657030    
   1104     0.657246       0.657030       0.657462    
   1105     0.657678       0.657462       0.657895    
   1106     0.658111       0.657895       0.658328    
   1107     0.658545       0.658328       0.658762    
   1108     0.658979       0.658762       0.659196    
   1109     0.659413       0.659196       0.659631    
   1110     0.659848       0.659631       0.660066    
   1111     0.660284       0.660066       0.660502    
   1112     0.660720       0.660502       0.660939    
   1113     0.661157       0.660939       0.661376    
   1114     0.661594       0.661376       0.661813    
   1115     0.662032       0.661813       0.662252    
   1116     0.662471       0.662252       0.662691    
   1117     0.662910       0.662691       0.663130    
   1118     0.663350       0.663130       0.663570    
   1119     0.663790       0.663570       0.664011    
   1120     0.664231       0.664011       0.664452    
   1121     0.664673       0.664452       0.664894    
   1122     0.665115       0.664894       0.665336    
   1123     0.665557       0.665336       0.665779    
   1124     0.666001       0.665779       0.666223    
   1125     0.666445       0.666223       0.666667    
   1126     0.666889       0.666667       0.667111    
   1127     0.667334       0.667111       0.667557    
   1128     0.667780       0.667557       0.668003    
   1129     0.668226       0.668003       0.668449    
   1130     0.668673       0.668449       0.668896    
   1131     0.669120       0.668896       0.669344    
   1132     0.669568       0.669344       0.669792    
   1133     0.670017       0.669792       0.670241    
   1134     0.670466       0.670241       0.670691    
   1135     0.670916       0.670691       0.671141    
   1136     0.671366       0.671141       0.671592    
   1137     0.671817       0.671592       0.672043    
   1138     0.672269       0.672043       0.672495    
   1139     0.672721       0.672495       0.672948    
   1140     0.673174       0.672948       0.673401    
   1141     0.673627       0.673401       0.673854    
   1142     0.674082       0.673854       0.674309    
   1143     0.674536       0.674309       0.674764    
   1144     0.674992       0.674764       0.675219    
   1145     0.675447       0.675219       0.675676    
   1146     0.675904       0.675676       0.676133    
   1147     0.676361       0.676133       0.676590    
   1148     0.676819       0.676590       0.677048    
   1149     0.677277       0.677048       0.677507    
   1150     0.677736       0.677507       0.677966    
   1151     0.678196       0.677966       0.678426    
   1152     0.678656       0.678426       0.678887    
   1153     0.679117       0.678887       0.679348    
   1154     0.679579       0.679348       0.679810    
   1155     0.680041       0.679810       0.680272    
   1156     0.680504       0.680272       0.680735    
   1157     0.680967       0.680735       0.681199    
   1158     0.681431       0.681199       0.681663    
   1159     0.681896       0.681663       0.682128    
   1160     0.682361       0.682128       0.682594    
   1161     0.682827       0.682594       0.683060    
   1162     0.683293       0.683060       0.683527    
   1163     0.683761       0.683527       0.683995    
   1164     0.684229       0.683995       0.684463    
   1165     0.684697       0.684463       0.684932    
   1166     0.685166       0.684932       0.685401    
   1167     0.685636       0.685401       0.685871    
   1168     0.686106       0.685871       0.686342    
   1169     0.686577       0.686342       0.686813    
   1170     0.687049       0.686813       0.687285    
   1171     0.687521       0.687285       0.687758    
   1172     0.687994       0.687758       0.688231    
   1173     0.688468       0.688231       0.688705    
   1174     0.688942       0.688705       0.689180    
   1175     0.689417       0.689180       0.689655    
   1176     0.689893       0.689655       0.690131    
   1177     0.690369       0.690131       0.690608    
   1178     0.690846       0.690608       0.691085    
   1179     0.691324       0.691085       0.691563    
   1180     0.691802       0.691563       0.692042    
   1181     0.692281       0.692042       0.692521    
   1182     0.692761       0.692521       0.693001    
   1183     0.693241       0.693001       0.693481    
   1184     0.693722       0.693481       0.693963    
   1185     0.694203       0.693963       0.694444    
   1186     0.694686       0.694444       0.694927    
   1187     0.695169       0.694927       0.695410    
   1188     0.695652       0.695410       0.695894    
   1189     0.696136       0.695894       0.696379    
   1190     0.696621       0.696379       0.696864    
   1191     0.697107       0.696864       0.697350    
   1192     0.697593       0.697350       0.697837    
   1193     0.698080       0.697837       0.698324    
   1194     0.698568       0.698324       0.698812    
   1195     0.699056       0.698812       0.699301    
   1196     0.699545       0.699301       0.699790    
   1197     0.700035       0.699790       0.700280    
   1198     0.700525       0.700280       0.700771    
   1199     0.701016       0.700771       0.701262    
   1200     0.701508       0.701262       0.701754    
   1201     0.702001       0.701754       0.702247    
   1202     0.702494       0.702247       0.702741    
   1203     0.702988       0.702741       0.703235    
   1204     0.703482       0.703235       0.703730    
   1205     0.703977       0.703730       0.704225    
   1206     0.704473       0.704225       0.704722    
   1207     0.704970       0.704722       0.705219    
   1208     0.705467       0.705219       0.705716    
   1209     0.705965       0.705716       0.706215    
   1210     0.706464       0.706215       0.706714    
   1211     0.706964       0.706714       0.707214    
   1212     0.707464       0.707214       0.707714    
   1213     0.707965       0.707714       0.708215    
   1214     0.708466       0.708215       0.708717    
   1215     0.708968       0.708717       0.709220    
   1216     0.709471       0.709220       0.709723    
   1217     0.709975       0.709723       0.710227    
   1218     0.710480       0.710227       0.710732    
   1219     0.710985       0.710732       0.711238    
   1220     0.711491       0.711238       0.711744    
   1221     0.711997       0.711744       0.712251    
   1222     0.712504       0.712251       0.712758    
   1223     0.713012       0.712758       0.713267    
   1224     0.713521       0.713267       0.713776    
   1225     0.714031       0.713776       0.714286    
   1226     0.714541       0.714286       0.714796    
   1227     0.715052       0.714796       0.715308    
   1228     0.715564       0.715308       0.715820    
   1229     0.716076       0.715820       0.716332    
   1230     0.716589       0.716332       0.716846    
   1231     0.717103       0.716846       0.717360    
   1232     0.717618       0.717360       0.717875    
   1233     0.718133       0.717875       0.718391    
   1234     0.718649       0.718391       0.718907    
   1235     0.719166       0.718907       0.719424    
   1236     0.719683       0.719424       0.719942    
   1237     0.720202       0.719942       0.720461    
   1238     0.720721       0.720461       0.720981    
   1239     0.721241       0.720981       0.721501    
   1240     0.721761       0.721501       0.722022    
   1241     0.722282       0.722022       0.722543    
   1242     0.722804       0.722543       0.723066    
   1243     0.723327       0.723066       0.723589    
   1244     0.723851       0.723589       0.724113    
   1245     0.724375       0.724113       0.724638    
   1246     0.724900       0.724638       0.725163    
   1247     0.725426       0.725163       0.725689    
   1248     0.725953       0.725689       0.726216    
   1249     0.726480       0.726216       0.726744    
   1250     0.727008       0.726744       0.727273    
   1251     0.727537       0.727273       0.727802    
   1252     0.728067       0.727802       0.728332    
   1253     0.728597       0.728332       0.728863    
   1254     0.729129       0.728863       0.729395    
   1255     0.729661       0.729395       0.729927    
   1256     0.730193       0.729927       0.730460    
   1257     0.730727       0.730460       0.730994    
   1258     0.731261       0.730994       0.731529    
   1259     0.731797       0.731529       0.732064    
   1260     0.732332       0.732064       0.732601    
   1261     0.732869       0.732601       0.733138    
   1262     0.733407       0.733138       0.733676    
   1263     0.733945       0.733676       0.734214    
   1264     0.734484       0.734214       0.734754    
   1265     0.735024       0.734754       0.735294    
   1266     0.735565       0.735294       0.735835    
   1267     0.736106       0.735835       0.736377    
   1268     0.736648       0.736377       0.736920    
   1269     0.737191       0.736920       0.737463    
   1270     0.737735       0.737463       0.738007    
   1271     0.738280       0.738007       0.738552    
   1272     0.738825       0.738552       0.739098    
   1273     0.739372       0.739098       0.739645    
   1274     0.739919       0.739645       0.740192    
   1275     0.740466       0.740192       0.740741    
   1276     0.741015       0.740741       0.741290    
   1277     0.741565       0.741290       0.741840    
   1278     0.742115       0.741840       0.742391    
   1279     0.742666       0.742391       0.742942    
   1280     0.743218       0.742942       0.743494    
   1281     0.743771       0.743494       0.744048    
   1282     0.744325       0.744048       0.744602    
   1283     0.744879       0.744602       0.745156    
   1284     0.745434       0.745156       0.745712    
   1285     0.745990       0.745712       0.746269    
   1286     0.746547       0.746269       0.746826    
   1287     0.747105       0.746826       0.747384    
   1288     0.747664       0.747384       0.747943    
   1289     0.748223       0.747943       0.748503    
   1290     0.748783       0.748503       0.749064    
   1291     0.749344       0.749064       0.749625    
   1292     0.749906       0.749625       0.750188    
   1293     0.750469       0.750188       0.750751    
   1294     0.751033       0.750751       0.751315    
   1295     0.751597       0.751315       0.751880    
   1296     0.752162       0.751880       0.752445    
   1297     0.752729       0.752445       0.753012    
   1298     0.753296       0.753012       0.753579    
   1299     0.753864       0.753579       0.754148    
   1300     0.754432       0.754148       0.754717    
   1301     0.755002       0.754717       0.755287    
   1302     0.755572       0.755287       0.755858    
   1303     0.756144       0.755858       0.756430    
   1304     0.756716       0.756430       0.757002    
   1305     0.757289       0.757002       0.757576    
   1306     0.757863       0.757576       0.758150    
   1307     0.758438       0.758150       0.758725    
   1308     0.759013       0.758725       0.759301    
   1309     0.759590       0.759301       0.759878    
   1310     0.760167       0.759878       0.760456    
   1311     0.760746       0.760456       0.761035    
   1312     0.761325       0.761035       0.761615    
   1313     0.761905       0.761615       0.762195    
   1314     0.762486       0.762195       0.762776    
   1315     0.763068       0.762776       0.763359    
   1316     0.763650       0.763359       0.763942    
   1317     0.764234       0.763942       0.764526    
   1318     0.764818       0.764526       0.765111    
   1319     0.765404       0.765111       0.765697    
   1320     0.765990       0.765697       0.766284    
   1321     0.766577       0.766284       0.766871    
   1322     0.767165       0.766871       0.767460    
   1323     0.767754       0.767460       0.768049    
   1324     0.768344       0.768049       0.768640    
   1325     0.768935       0.768640       0.769231    
   1326     0.769527       0.769231       0.769823    
   1327     0.770119       0.769823       0.770416    
   1328     0.770713       0.770416       0.771010    
   1329     0.771307       0.771010       0.771605    
   1330     0.771903       0.771605       0.772201    
   1331     0.772499       0.772201       0.772798    
   1332     0.773096       0.772798       0.773395    
   1333     0.773694       0.773395       0.773994    
   1334     0.774293       0.773994       0.774593    
   1335     0.774893       0.774593       0.775194    
   1336     0.775494       0.775194       0.775795    
   1337     0.776096       0.775795       0.776398    
   1338     0.776699       0.776398       0.777001    
   1339     0.777303       0.777001       0.777605    
   1340     0.777907       0.777605       0.778210    
   1341     0.778513       0.778210       0.778816    
   1342     0.779120       0.778816       0.779423    
   1343     0.779727       0.779423       0.780031    
   1344     0.780336       0.780031       0.780640    
   1345     0.780945       0.780640       0.781250    
   1346     0.781555       0.781250       0.781861    
   1347     0.782167       0.781861       0.782473    
   1348     0.782779       0.782473       0.783085    
   1349     0.783392       0.783085       0.783699    
   1350     0.784006       0.783699       0.784314    
   1351     0.784621       0.784314       0.784929    
   1352     0.785238       0.784929       0.785546    
   1353     0.785855       0.785546       0.786164    
   1354     0.786473       0.786164       0.786782    
   1355     0.787092       0.786782       0.787402    
   1356     0.787712       0.787402       0.788022    
   1357     0.788333       0.788022       0.788644    
   1358     0.788955       0.788644       0.789266    
   1359     0.789578       0.789266       0.789889    
   1360     0.790201       0.789889       0.790514    
   1361     0.790826       0.790514       0.791139    
   1362     0.791452       0.791139       0.791766    
   1363     0.792079       0.791766       0.792393    
   1364     0.792707       0.792393       0.793021    
   1365     0.793336       0.793021       0.793651    
   1366     0.793966       0.793651       0.794281    
   1367     0.794597       0.794281       0.794913    
   1368     0.795229       0.794913       0.795545    
   1369     0.795862       0.795545       0.796178    
   1370     0.796495       0.796178       0.796813    
   1371     0.797130       0.796813       0.797448    
   1372     0.797766       0.797448       0.798085    
   1373     0.798403       0.798085       0.798722    
   1374     0.799041       0.798722       0.799361    
   1375     0.799680       0.799361       0.800000    
   1376     0.800320       0.800000       0.800641    
   1377     0.800961       0.800641       0.801282    
   1378     0.801603       0.801282       0.801925    
   1379     0.802246       0.801925       0.802568    
   1380     0.802890       0.802568       0.803213    
   1381     0.803536       0.803213       0.803859    
   1382     0.804182       0.803859       0.804505    
   1383     0.804829       0.804505       0.805153    
   1384     0.805477       0.805153       0.805802    
   1385     0.806127       0.805802       0.806452    
   1386     0.806777       0.806452       0.807103    
   1387     0.807428       0.807103       0.807754    
   1388     0.808081       0.807754       0.808407    
   1389     0.808734       0.808407       0.809061    
   1390     0.809389       0.809061       0.809717    
   1391     0.810045       0.809717       0.810373    
   1392     0.810701       0.810373       0.811030    
   1393     0.811359       0.811030       0.811688    
   1394     0.812018       0.811688       0.812348    
   1395     0.812678       0.812348       0.813008    
   1396     0.813339       0.813008       0.813670    
   1397     0.814001       0.813670       0.814332    
   1398     0.814664       0.814332       0.814996    
   1399     0.815328       0.814996       0.815661    
   1400     0.815993       0.815661       0.816327    
   1401     0.816660       0.816327       0.816993    
   1402     0.817327       0.816993       0.817661    
   1403     0.817996       0.817661       0.818331    
   1404     0.818666       0.818331       0.819001    
   1405     0.819336       0.819001       0.819672    
   1406     0.820008       0.819672       0.820345    
   1407     0.820681       0.820345       0.821018    
   1408     0.821355       0.821018       0.821693    
   1409     0.822030       0.821693       0.822368    
   1410     0.822707       0.822368       0.823045    
   1411     0.823384       0.823045       0.823723    
   1412     0.824063       0.823723       0.824402    
   1413     0.824742       0.824402       0.825082    
   1414     0.825423       0.825082       0.825764    
   1415     0.826105       0.825764       0.826446    
   1416     0.826788       0.826446       0.827130    
   1417     0.827472       0.827130       0.827815    
   1418     0.828157       0.827815       0.828500    
   1419     0.828844       0.828500       0.829187    
   1420     0.829531       0.829187       0.829876    
   1421     0.830220       0.829876       0.830565    
   1422     0.830910       0.830565       0.831255    
   1423     0.831601       0.831255       0.831947    
   1424     0.832293       0.831947       0.832639    
   1425     0.832986       0.832639       0.833333    
   1426     0.833681       0.833333       0.834028    
   1427     0.834376       0.834028       0.834725    
   1428     0.835073       0.834725       0.835422    
   1429     0.835771       0.835422       0.836120    
   1430     0.836470       0.836120       0.836820    
   1431     0.837170       0.836820       0.837521    
   1432     0.837872       0.837521       0.838223    
   1433     0.838574       0.838223       0.838926    
   1434     0.839278       0.838926       0.839631    
   1435     0.839983       0.839631       0.840336    
   1436     0.840689       0.840336       0.841043    
   1437     0.841397       0.841043       0.841751    
   1438     0.842105       0.841751       0.842460    
   1439     0.842815       0.842460       0.843170    
   1440     0.843526       0.843170       0.843882    
   1441     0.844238       0.843882       0.844595    
   1442     0.844951       0.844595       0.845309    
   1443     0.845666       0.845309       0.846024    
   1444     0.846382       0.846024       0.846740    
   1445     0.847099       0.846740       0.847458    
   1446     0.847817       0.847458       0.848176    
   1447     0.848536       0.848176       0.848896    
   1448     0.849257       0.848896       0.849618    
   1449     0.849979       0.849618       0.850340    
   1450     0.850702       0.850340       0.851064    
   1451     0.851426       0.851064       0.851789    
   1452     0.852152       0.851789       0.852515    
   1453     0.852878       0.852515       0.853242    
   1454     0.853606       0.853242       0.853971    
   1455     0.854336       0.853971       0.854701    
   1456     0.855066       0.854701       0.855432    
   1457     0.855798       0.855432       0.856164    
   1458     0.856531       0.856164       0.856898    
   1459     0.857265       0.856898       0.857633    
   1460     0.858001       0.857633       0.858369    
   1461     0.858738       0.858369       0.859107    
   1462     0.859476       0.859107       0.859845    
   1463     0.860215       0.859845       0.860585    
   1464     0.860956       0.860585       0.861326    
   1465     0.861698       0.861326       0.862069    
   1466     0.862441       0.862069       0.862813    
   1467     0.863185       0.862813       0.863558    
   1468     0.863931       0.863558       0.864304    
   1469     0.864678       0.864304       0.865052    
   1470     0.865426       0.865052       0.865801    
   1471     0.866176       0.865801       0.866551    
   1472     0.866927       0.866551       0.867303    
   1473     0.867679       0.867303       0.868056    
   1474     0.868432       0.868056       0.868810    
   1475     0.869187       0.868810       0.869565    
   1476     0.869943       0.869565       0.870322    
   1477     0.870701       0.870322       0.871080    
   1478     0.871460       0.871080       0.871840    
   1479     0.872220       0.871840       0.872600    
   1480     0.872981       0.872600       0.873362    
   1481     0.873744       0.873362       0.874126    
   1482     0.874508       0.874126       0.874891    
   1483     0.875274       0.874891       0.875657    
   1484     0.876040       0.875657       0.876424    
   1485     0.876808       0.876424       0.877193    
   1486     0.877578       0.877193       0.877963    
   1487     0.878349       0.877963       0.878735    
   1488     0.879121       0.878735       0.879507    
   1489     0.879894       0.879507       0.880282    
   1490     0.880669       0.880282       0.881057    
   1491     0.881446       0.881057       0.881834    
   1492     0.882223       0.881834       0.882613    
   1493     0.883002       0.882613       0.883392    
   1494     0.883783       0.883392       0.884173    
   1495     0.884564       0.884173       0.884956    
   1496     0.885347       0.884956       0.885740    
   1497     0.886132       0.885740       0.886525    
   1498     0.886918       0.886525       0.887311    
   1499     0.887705       0.887311       0.888099    
   1500     0.888494       0.888099       0.888889    
   1501     0.889284       0.888889       0.889680    
   1502     0.890076       0.889680       0.890472    
   1503     0.890869       0.890472       0.891266    
   1504     0.891663       0.891266       0.892061    
   1505     0.892459       0.892061       0.892857    
   1506     0.893256       0.892857       0.893655    
   1507     0.894055       0.893655       0.894454    
   1508     0.894855       0.894454       0.895255    
   1509     0.895656       0.895255       0.896057    
   1510     0.896459       0.896057       0.896861    
   1511     0.897263       0.896861       0.897666    
   1512     0.898069       0.897666       0.898473    
   1513     0.898876       0.898473       0.899281    
   1514     0.899685       0.899281       0.900090    
   1515     0.900495       0.900090       0.900901    
   1516     0.901307       0.900901       0.901713    
   1517     0.902120       0.901713       0.902527    
   1518     0.902935       0.902527       0.903342    
   1519     0.903751       0.903342       0.904159    
   1520     0.904568       0.904159       0.904977    
   1521     0.905387       0.904977       0.905797    
   1522     0.906208       0.905797       0.906618    
   1523     0.907029       0.906618       0.907441    
   1524     0.907853       0.907441       0.908265    
   1525     0.908678       0.908265       0.909091    
   1526     0.909504       0.909091       0.909918    
   1527     0.910332       0.909918       0.910747    
   1528     0.911162       0.910747       0.911577    
   1529     0.911993       0.911577       0.912409    
   1530     0.912825       0.912409       0.913242    
   1531     0.913659       0.913242       0.914077    
   1532     0.914495       0.914077       0.914913    
   1533     0.915332       0.914913       0.915751    
   1534     0.916170       0.915751       0.916590    
   1535     0.917011       0.916590       0.917431    
   1536     0.917852       0.917431       0.918274    
   1537     0.918695       0.918274       0.919118    
   1538     0.919540       0.919118       0.919963    
   1539     0.920387       0.919963       0.920810    
   1540     0.921234       0.920810       0.921659    
   1541     0.922084       0.921659       0.922509    
   1542     0.922935       0.922509       0.923361    
   1543     0.923788       0.923361       0.924214    
   1544     0.924642       0.924214       0.925069    
   1545     0.925497       0.925069       0.925926    
   1546     0.926355       0.925926       0.926784    
   1547     0.927214       0.926784       0.927644    
   1548     0.928074       0.927644       0.928505    
   1549     0.928936       0.928505       0.929368    
   1550     0.929800       0.929368       0.930233    
   1551     0.930665       0.930233       0.931099    
   1552     0.931532       0.931099       0.931966    
   1553     0.932401       0.931966       0.932836    
   1554     0.933271       0.932836       0.933707    
   1555     0.934143       0.933707       0.934579    
   1556     0.935016       0.934579       0.935454    
   1557     0.935891       0.935454       0.936330    
   1558     0.936768       0.936330       0.937207    
   1559     0.937647       0.937207       0.938086    
   1560     0.938527       0.938086       0.938967    
   1561     0.939408       0.938967       0.939850    
   1562     0.940291       0.939850       0.940734    
   1563     0.941176       0.940734       0.941620    
   1564     0.942063       0.941620       0.942507    
   1565     0.942951       0.942507       0.943396    
   1566     0.943841       0.943396       0.944287    
   1567     0.944733       0.944287       0.945180    
   1568     0.945626       0.945180       0.946074    
   1569     0.946522       0.946074       0.946970    
   1570     0.947418       0.946970       0.947867    
   1571     0.948317       0.947867       0.948767    
   1572     0.949217       0.948767       0.949668    
   1573     0.950119       0.949668       0.950570    
   1574     0.951022       0.950570       0.951475    
   1575     0.951928       0.951475       0.952381    
   1576     0.952835       0.952381       0.953289    
   1577     0.953743       0.953289       0.954198    
   1578     0.954654       0.954198       0.955110    
   1579     0.955566       0.955110       0.956023    
   1580     0.956480       0.956023       0.956938    
   1581     0.957396       0.956938       0.957854    
   1582     0.958313       0.957854       0.958773    
   1583     0.959233       0.958773       0.959693    
   1584     0.960154       0.959693       0.960615    
   1585     0.961076       0.960615       0.961538    
   1586     0.962001       0.961538       0.962464    
   1587     0.962927       0.962464       0.963391    
   1588     0.963855       0.963391       0.964320    
   1589     0.964785       0.964320       0.965251    
   1590     0.965717       0.965251       0.966184    
   1591     0.966651       0.966184       0.967118    
   1592     0.967586       0.967118       0.968054    
   1593     0.968523       0.968054       0.968992    
   1594     0.969462       0.968992       0.969932    
   1595     0.970403       0.969932       0.970874    
   1596     0.971345       0.970874       0.971817    
   1597     0.972290       0.971817       0.972763    
   1598     0.973236       0.972763       0.973710    
   1599     0.974184       0.973710       0.974659    
   1600     0.975134       0.974659       0.975610    
   1601     0.976086       0.975610       0.976562    
   1602     0.977040       0.976562       0.977517    
   1603     0.977995       0.977517       0.978474    
   1604     0.978953       0.978474       0.979432    
   1605     0.979912       0.979432       0.980392    
   1606     0.980873       0.980392       0.981354    
   1607     0.981836       0.981354       0.982318    
   1608     0.982801       0.982318       0.983284    
   1609     0.983768       0.983284       0.984252    
   1610     0.984737       0.984252       0.985222    
   1611     0.985707       0.985222       0.986193    
   1612     0.986680       0.986193       0.987167    
   1613     0.987654       0.987167       0.988142    
   1614     0.988631       0.988142       0.989120    
   1615     0.989609       0.989120       0.990099    
   1616     0.990589       0.990099       0.991080    
   1617     0.991572       0.991080       0.992063    
   1618     0.992556       0.992063       0.993049    
   1619     0.993542       0.993049       0.994036    
   1620     0.994530       0.994036       0.995025    
   1621     0.995520       0.995025       0.996016    
   1622     0.996512       0.996016       0.997009    
   1623     0.997506       0.997009       0.998004    
   1624     0.998502       0.998004       0.999001    
   1625     0.999500       0.999001       1.000000    
   1626     1.000500       1.000000       1.001001    
   1627     1.001502       1.001001       1.002004    
   1628     1.002506       1.002004       1.003009    
   1629     1.003512       1.003009       1.004016    
   1630     1.004520       1.004016       1.005025    
   1631     1.005530       1.005025       1.006036    
   1632     1.006543       1.006036       1.007049    
   1633     1.007557       1.007049       1.008065    
   1634     1.008573       1.008065       1.009082    
   1635     1.009591       1.009082       1.010101    
   1636     1.010611       1.010101       1.011122    
   1637     1.011634       1.011122       1.012146    
   1638     1.012658       1.012146       1.013171    
   1639     1.013685       1.013171       1.014199    
   1640     1.014713       1.014199       1.015228    
   1641     1.015744       1.015228       1.016260    
   1642     1.016777       1.016260       1.017294    
   1643     1.017812       1.017294       1.018330    
   1644     1.018849       1.018330       1.019368    
   1645     1.019888       1.019368       1.020408    
   1646     1.020929       1.020408       1.021450    
   1647     1.021972       1.021450       1.022495    
   1648     1.023018       1.022495       1.023541    
   1649     1.024065       1.023541       1.024590    
   1650     1.025115       1.024590       1.025641    
   1651     1.026167       1.025641       1.026694    
   1652     1.027221       1.026694       1.027749    
   1653     1.028278       1.027749       1.028807    
   1654     1.029336       1.028807       1.029866    
   1655     1.030397       1.029866       1.030928    
   1656     1.031460       1.030928       1.031992    
   1657     1.032524       1.031992       1.033058    
   1658     1.033592       1.033058       1.034126    
   1659     1.034661       1.034126       1.035197    
   1660     1.035733       1.035197       1.036269    
   1661     1.036807       1.036269       1.037344    
   1662     1.037883       1.037344       1.038422    
   1663     1.038961       1.038422       1.039501    
   1664     1.040042       1.039501       1.040583    
   1665     1.041124       1.040583       1.041667    
   1666     1.042210       1.041667       1.042753    
   1667     1.043297       1.042753       1.043841    
   1668     1.044386       1.043841       1.044932    
   1669     1.045478       1.044932       1.046025    
   1670     1.046572       1.046025       1.047120    
   1671     1.047669       1.047120       1.048218    
   1672     1.048768       1.048218       1.049318    
   1673     1.049869       1.049318       1.050420    
   1674     1.050972       1.050420       1.051525    
   1675     1.052078       1.051525       1.052632    
   1676     1.053186       1.052632       1.053741    
   1677     1.054296       1.053741       1.054852    
   1678     1.055409       1.054852       1.055966    
   1679     1.056524       1.055966       1.057082    
   1680     1.057642       1.057082       1.058201    
   1681     1.058761       1.058201       1.059322    
   1682     1.059883       1.059322       1.060445    
   1683     1.061008       1.060445       1.061571    
   1684     1.062135       1.061571       1.062699    
   1685     1.063264       1.062699       1.063830    
   1686     1.064396       1.063830       1.064963    
   1687     1.065530       1.064963       1.066098    
   1688     1.066667       1.066098       1.067236    
   1689     1.067806       1.067236       1.068376    
   1690     1.068947       1.068376       1.069519    
   1691     1.070091       1.069519       1.070664    
   1692     1.071237       1.070664       1.071811    
   1693     1.072386       1.071811       1.072961    
   1694     1.073537       1.072961       1.074114    
   1695     1.074691       1.074114       1.075269    
   1696     1.075847       1.075269       1.076426    
   1697     1.077006       1.076426       1.077586    
   1698     1.078167       1.077586       1.078749    
   1699     1.079331       1.078749       1.079914    
   1700     1.080497       1.079914       1.081081    
   1701     1.081666       1.081081       1.082251    
   1702     1.082837       1.082251       1.083424    
   1703     1.084011       1.083424       1.084599    
   1704     1.085187       1.084599       1.085776    
   1705     1.086366       1.085776       1.086957    
   1706     1.087548       1.086957       1.088139    
   1707     1.088732       1.088139       1.089325    
   1708     1.089918       1.089325       1.090513    
   1709     1.091107       1.090513       1.091703    
   1710     1.092299       1.091703       1.092896    
   1711     1.093494       1.092896       1.094092    
   1712     1.094691       1.094092       1.095290    
   1713     1.095890       1.095290       1.096491    
   1714     1.097093       1.096491       1.097695    
   1715     1.098298       1.097695       1.098901    
   1716     1.099505       1.098901       1.100110    
   1717     1.100716       1.100110       1.101322    
   1718     1.101928       1.101322       1.102536    
   1719     1.103144       1.102536       1.103753    
   1720     1.104362       1.103753       1.104972    
   1721     1.105583       1.104972       1.106195    
   1722     1.106807       1.106195       1.107420    
   1723     1.108033       1.107420       1.108647    
   1724     1.109262       1.108647       1.109878    
   1725     1.110494       1.109878       1.111111    
   1726     1.111729       1.111111       1.112347    
   1727     1.112966       1.112347       1.113586    
   1728     1.114206       1.113586       1.114827    
   1729     1.115449       1.114827       1.116071    
   1730     1.116695       1.116071       1.117318    
   1731     1.117943       1.117318       1.118568    
   1732     1.119194       1.118568       1.119821    
   1733     1.120448       1.119821       1.121076    
   1734     1.121705       1.121076       1.122334    
   1735     1.122965       1.122334       1.123595    
   1736     1.124227       1.123595       1.124859    
   1737     1.125492       1.124859       1.126126    
   1738     1.126761       1.126126       1.127396    
   1739     1.128032       1.127396       1.128668    
   1740     1.129305       1.128668       1.129943    
   1741     1.130582       1.129943       1.131222    
   1742     1.131862       1.131222       1.132503    
   1743     1.133144       1.132503       1.133787    
   1744     1.134430       1.133787       1.135074    
   1745     1.135718       1.135074       1.136364    
   1746     1.137010       1.136364       1.137656    
   1747     1.138304       1.137656       1.138952    
   1748     1.139601       1.138952       1.140251    
   1749     1.140901       1.140251       1.141553    
   1750     1.142204       1.141553       1.142857    
   1751     1.143511       1.142857       1.144165    
   1752     1.144820       1.144165       1.145475    
   1753     1.146132       1.145475       1.146789    
   1754     1.147447       1.146789       1.148106    
   1755     1.148765       1.148106       1.149425    
   1756     1.150086       1.149425       1.150748    
   1757     1.151410       1.150748       1.152074    
   1758     1.152738       1.152074       1.153403    
   1759     1.154068       1.153403       1.154734    
   1760     1.155401       1.154734       1.156069    
   1761     1.156738       1.156069       1.157407    
   1762     1.158078       1.157407       1.158749    
   1763     1.159420       1.158749       1.160093    
   1764     1.160766       1.160093       1.161440    
   1765     1.162115       1.161440       1.162791    
   1766     1.163467       1.162791       1.164144    
   1767     1.164822       1.164144       1.165501    
   1768     1.166181       1.165501       1.166861    
   1769     1.167542       1.166861       1.168224    
   1770     1.168907       1.168224       1.169591    
   1771     1.170275       1.169591       1.170960    
   1772     1.171646       1.170960       1.172333    
   1773     1.173020       1.172333       1.173709    
   1774     1.174398       1.173709       1.175088    
   1775     1.175779       1.175088       1.176471    
   1776     1.177163       1.176471       1.177856    
   1777     1.178550       1.177856       1.179245    
   1778     1.179941       1.179245       1.180638    
   1779     1.181335       1.180638       1.182033    
   1780     1.182732       1.182033       1.183432    
   1781     1.184133       1.183432       1.184834    
   1782     1.185537       1.184834       1.186240    
   1783     1.186944       1.186240       1.187648    
   1784     1.188354       1.187648       1.189061    
   1785     1.189768       1.189061       1.190476    
   1786     1.191185       1.190476       1.191895    
   1787     1.192606       1.191895       1.193317    
   1788     1.194030       1.193317       1.194743    
   1789     1.195457       1.194743       1.196172    
   1790     1.196888       1.196172       1.197605    
   1791     1.198322       1.197605       1.199041    
   1792     1.199760       1.199041       1.200480    
   1793     1.201201       1.200480       1.201923    
   1794     1.202646       1.201923       1.203369    
   1795     1.204094       1.203369       1.204819    
   1796     1.205546       1.204819       1.206273    
   1797     1.207001       1.206273       1.207729    
   1798     1.208459       1.207729       1.209190    
   1799     1.209921       1.209190       1.210654    
   1800     1.211387       1.210654       1.212121    
   1801     1.212856       1.212121       1.213592    
   1802     1.214329       1.213592       1.215067    
   1803     1.215806       1.215067       1.216545    
   1804     1.217285       1.216545       1.218027    
   1805     1.218769       1.218027       1.219512    
   1806     1.220256       1.219512       1.221001    
   1807     1.221747       1.221001       1.222494    
   1808     1.223242       1.222494       1.223990    
   1809     1.224740       1.223990       1.225490    
   1810     1.226242       1.225490       1.226994    
   1811     1.227747       1.226994       1.228501    
   1812     1.229256       1.228501       1.230012    
   1813     1.230769       1.230012       1.231527    
   1814     1.232286       1.231527       1.233046    
   1815     1.233806       1.233046       1.234568    
   1816     1.235330       1.234568       1.236094    
   1817     1.236858       1.236094       1.237624    
   1818     1.238390       1.237624       1.239157    
   1819     1.239926       1.239157       1.240695    
   1820     1.241465       1.240695       1.242236    
   1821     1.243008       1.242236       1.243781    
   1822     1.244555       1.243781       1.245330    
   1823     1.246106       1.245330       1.246883    
   1824     1.247661       1.246883       1.248439    
   1825     1.249219       1.248439       1.250000    
   1826     1.250782       1.250000       1.251565    
   1827     1.252348       1.251565       1.253133    
   1828     1.253919       1.253133       1.254705    
   1829     1.255493       1.254705       1.256281    
   1830     1.257071       1.256281       1.257862    
   1831     1.258653       1.257862       1.259446    
   1832     1.260239       1.259446       1.261034    
   1833     1.261830       1.261034       1.262626    
   1834     1.263424       1.262626       1.264223    
   1835     1.265022       1.264223       1.265823    
   1836     1.266624       1.265823       1.267427    
   1837     1.268231       1.267427       1.269036    
   1838     1.269841       1.269036       1.270648    
   1839     1.271456       1.270648       1.272265    
   1840     1.273075       1.272265       1.273885    
   1841     1.274697       1.273885       1.275510    
   1842     1.276324       1.275510       1.277139    
   1843     1.277955       1.277139       1.278772    
   1844     1.279590       1.278772       1.280410    
   1845     1.281230       1.280410       1.282051    
   1846     1.282874       1.282051       1.283697    
   1847     1.284521       1.283697       1.285347    
   1848     1.286174       1.285347       1.287001    
   1849     1.287830       1.287001       1.288660    
   1850     1.289491       1.288660       1.290323    
   1851     1.291156       1.290323       1.291990    
   1852     1.292825       1.291990       1.293661    
   1853     1.294498       1.293661       1.295337    
   1854     1.296176       1.295337       1.297017    
   1855     1.297858       1.297017       1.298701    
   1856     1.299545       1.298701       1.300390    
   1857     1.301236       1.300390       1.302083    
   1858     1.302932       1.302083       1.303781    
   1859     1.304631       1.303781       1.305483    
   1860     1.306336       1.305483       1.307190    
   1861     1.308044       1.307190       1.308900    
   1862     1.309758       1.308900       1.310616    
   1863     1.311475       1.310616       1.312336    
   1864     1.313198       1.312336       1.314060    
   1865     1.314924       1.314060       1.315789    
   1866     1.316656       1.315789       1.317523    
   1867     1.318392       1.317523       1.319261    
   1868     1.320132       1.319261       1.321004    
   1869     1.321877       1.321004       1.322751    
   1870     1.323627       1.322751       1.324503    
   1871     1.325381       1.324503       1.326260    
   1872     1.327140       1.326260       1.328021    
   1873     1.328904       1.328021       1.329787    
   1874     1.330672       1.329787       1.331558    
   1875     1.332445       1.331558       1.333333    
   1876     1.334223       1.333333       1.335114    
   1877     1.336005       1.335114       1.336898    
   1878     1.337793       1.336898       1.338688    
   1879     1.339585       1.338688       1.340483    
   1880     1.341382       1.340483       1.342282    
   1881     1.343183       1.342282       1.344086    
   1882     1.344990       1.344086       1.345895    
   1883     1.346801       1.345895       1.347709    
   1884     1.348618       1.347709       1.349528    
   1885     1.350439       1.349528       1.351351    
   1886     1.352265       1.351351       1.353180    
   1887     1.354096       1.353180       1.355014    
   1888     1.355932       1.355014       1.356852    
   1889     1.357773       1.356852       1.358696    
   1890     1.359619       1.358696       1.360544    
   1891     1.361470       1.360544       1.362398    
   1892     1.363327       1.362398       1.364257    
   1893     1.365188       1.364257       1.366120    
   1894     1.367054       1.366120       1.367989    
   1895     1.368925       1.367989       1.369863    
   1896     1.370802       1.369863       1.371742    
   1897     1.372684       1.371742       1.373626    
   1898     1.374570       1.373626       1.375516    
   1899     1.376462       1.375516       1.377410    
   1900     1.378360       1.377410       1.379310    
   1901     1.380262       1.379310       1.381215    
   1902     1.382170       1.381215       1.383126    
   1903     1.384083       1.383126       1.385042    
   1904     1.386001       1.385042       1.386963    
   1905     1.387925       1.386963       1.388889    
   1906     1.389854       1.388889       1.390821    
   1907     1.391788       1.390821       1.392758    
   1908     1.393728       1.392758       1.394700    
   1909     1.395673       1.394700       1.396648    
   1910     1.397624       1.396648       1.398601    
   1911     1.399580       1.398601       1.400560    
   1912     1.401542       1.400560       1.402525    
   1913     1.403509       1.402525       1.404494    
   1914     1.405481       1.404494       1.406470    
   1915     1.407459       1.406470       1.408451    
   1916     1.409443       1.408451       1.410437    
   1917     1.411433       1.410437       1.412429    
   1918     1.413428       1.412429       1.414427    
   1919     1.415428       1.414427       1.416431    
   1920     1.417434       1.416431       1.418440    
   1921     1.419446       1.418440       1.420455    
   1922     1.421464       1.420455       1.422475    
   1923     1.423488       1.422475       1.424501    
   1924     1.425517       1.424501       1.426534    
   1925     1.427552       1.426534       1.428571    
   1926     1.429593       1.428571       1.430615    
   1927     1.431639       1.430615       1.432665    
   1928     1.433692       1.432665       1.434720    
   1929     1.435750       1.434720       1.436782    
   1930     1.437814       1.436782       1.438849    
   1931     1.439885       1.438849       1.440922    
   1932     1.441961       1.440922       1.443001    
   1933     1.444043       1.443001       1.445087    
   1934     1.446132       1.445087       1.447178    
   1935     1.448226       1.447178       1.449275    
   1936     1.450326       1.449275       1.451379    
   1937     1.452433       1.451379       1.453488    
   1938     1.454545       1.453488       1.455604    
   1939     1.456664       1.455604       1.457726    
   1940     1.458789       1.457726       1.459854    
   1941     1.460920       1.459854       1.461988    
   1942     1.463058       1.461988       1.464129    
   1943     1.465201       1.464129       1.466276    
   1944     1.467351       1.466276       1.468429    
   1945     1.469508       1.468429       1.470588    
   1946     1.471670       1.470588       1.472754    
   1947     1.473839       1.472754       1.474926    
   1948     1.476015       1.474926       1.477105    
   1949     1.478197       1.477105       1.479290    
   1950     1.480385       1.479290       1.481481    
   1951     1.482580       1.481481       1.483680    
   1952     1.484781       1.483680       1.485884    
   1953     1.486989       1.485884       1.488095    
   1954     1.489203       1.488095       1.490313    
   1955     1.491424       1.490313       1.492537    
   1956     1.493652       1.492537       1.494768    
   1957     1.495886       1.494768       1.497006    
   1958     1.498127       1.497006       1.499250    
   1959     1.500375       1.499250       1.501502    
   1960     1.502630       1.501502       1.503759    
   1961     1.504891       1.503759       1.506024    
   1962     1.507159       1.506024       1.508296    
   1963     1.509434       1.508296       1.510574    
   1964     1.511716       1.510574       1.512859    
   1965     1.514005       1.512859       1.515152    
   1966     1.516300       1.515152       1.517451    
   1967     1.518603       1.517451       1.519757    
   1968     1.520913       1.519757       1.522070    
   1969     1.523229       1.522070       1.524390    
   1970     1.525553       1.524390       1.526718    
   1971     1.527884       1.526718       1.529052    
   1972     1.530222       1.529052       1.531394    
   1973     1.532567       1.531394       1.533742    
   1974     1.534919       1.533742       1.536098    
   1975     1.537279       1.536098       1.538462    
   1976     1.539646       1.538462       1.540832    
   1977     1.542020       1.540832       1.543210    
   1978     1.544402       1.543210       1.545595    
   1979     1.546790       1.545595       1.547988    
   1980     1.549187       1.547988       1.550388    
   1981     1.551590       1.550388       1.552795    
   1982     1.554002       1.552795       1.555210    
   1983     1.556420       1.555210       1.557632    
   1984     1.558846       1.557632       1.560062    
   1985     1.561280       1.560062       1.562500    
   1986     1.563722       1.562500       1.564945    
   1987     1.566171       1.564945       1.567398    
   1988     1.568627       1.567398       1.569859    
   1989     1.571092       1.569859       1.572327    
   1990     1.573564       1.572327       1.574803    
   1991     1.576044       1.574803       1.577287    
   1992     1.578532       1.577287       1.579779    
   1993     1.581028       1.579779       1.582278    
   1994     1.583531       1.582278       1.584786    
   1995     1.586043       1.584786       1.587302    
   1996     1.588562       1.587302       1.589825    
   1997     1.591090       1.589825       1.592357    
   1998     1.593626       1.592357       1.594896    
   1999     1.596169       1.594896       1.597444    
   2000     1.598721       1.597444       1.600000    
   2001     1.601281       1.600000       1.602564    
   2002     1.603849       1.602564       1.605136    
   2003     1.606426       1.605136       1.607717    
   2004     1.609010       1.607717       1.610306    
   2005     1.611603       1.610306       1.612903    
   2006     1.614205       1.612903       1.615509    
   2007     1.616815       1.615509       1.618123    
   2008     1.619433       1.618123       1.620746    
   2009     1.622060       1.620746       1.623377    
   2010     1.624695       1.623377       1.626016    
   2011     1.627339       1.626016       1.628664    
   2012     1.629992       1.628664       1.631321    
   2013     1.632653       1.631321       1.633987    
   2014     1.635323       1.633987       1.636661    
   2015     1.638002       1.636661       1.639344    
   2016     1.640689       1.639344       1.642036    
   2017     1.643385       1.642036       1.644737    
   2018     1.646091       1.644737       1.647447    
   2019     1.648805       1.647447       1.650165    
   2020     1.651528       1.650165       1.652893    
   2021     1.654260       1.652893       1.655629    
   2022     1.657001       1.655629       1.658375    
   2023     1.659751       1.658375       1.661130    
   2024     1.662510       1.661130       1.663893    
   2025     1.665279       1.663893       1.666667    
   2026     1.668057       1.666667       1.669449    
   2027     1.670844       1.669449       1.672241    
   2028     1.673640       1.672241       1.675042    
   2029     1.676446       1.675042       1.677852    
   2030     1.679261       1.677852       1.680672    
   2031     1.682086       1.680672       1.683502    
   2032     1.684920       1.683502       1.686341    
   2033     1.687764       1.686341       1.689189    
   2034     1.690617       1.689189       1.692047    
   2035     1.693480       1.692047       1.694915    
   2036     1.696353       1.694915       1.697793    
   2037     1.699235       1.697793       1.700680    
   2038     1.702128       1.700680       1.703578    
   2039     1.705030       1.703578       1.706485    
   2040     1.707942       1.706485       1.709402    
   2041     1.710864       1.709402       1.712329    
   2042     1.713796       1.712329       1.715266    
   2043     1.716738       1.715266       1.718213    
   2044     1.719690       1.718213       1.721170    
   2045     1.722653       1.721170       1.724138    
   2046     1.725626       1.724138       1.727116    
   2047     1.728608       1.727116       1.730104    
   2048     1.731602       1.730104       1.733102    
   2049     1.734605       1.733102       1.736111    
   2050     1.737620       1.736111       1.739130    
   2051     1.740644       1.739130       1.742160    
   2052     1.743679       1.742160       1.745201    
   2053     1.746725       1.745201       1.748252    
   2054     1.749781       1.748252       1.751313    
   2055     1.752848       1.751313       1.754386    
   2056     1.755926       1.754386       1.757469    
   2057     1.759015       1.757469       1.760563    
   2058     1.762115       1.760563       1.763668    
   2059     1.765225       1.763668       1.766784    
   2060     1.768347       1.766784       1.769912    
   2061     1.771479       1.769912       1.773050    
   2062     1.774623       1.773050       1.776199    
   2063     1.777778       1.776199       1.779359    
   2064     1.780944       1.779359       1.782531    
   2065     1.784121       1.782531       1.785714    
   2066     1.787310       1.785714       1.788909    
   2067     1.790510       1.788909       1.792115    
   2068     1.793722       1.792115       1.795332    
   2069     1.796945       1.795332       1.798561    
   2070     1.800180       1.798561       1.801802    
   2071     1.803427       1.801802       1.805054    
   2072     1.806685       1.805054       1.808318    
   2073     1.809955       1.808318       1.811594    
   2074     1.813237       1.811594       1.814882    
   2075     1.816530       1.814882       1.818182    
   2076     1.819836       1.818182       1.821494    
   2077     1.823154       1.821494       1.824818    
   2078     1.826484       1.824818       1.828154    
   2079     1.829826       1.828154       1.831502    
   2080     1.833181       1.831502       1.834862    
   2081     1.836547       1.834862       1.838235    
   2082     1.839926       1.838235       1.841621    
   2083     1.843318       1.841621       1.845019    
   2084     1.846722       1.845019       1.848429    
   2085     1.850139       1.848429       1.851852    
   2086     1.853568       1.851852       1.855288    
   2087     1.857010       1.855288       1.858736    
   2088     1.860465       1.858736       1.862197    
   2089     1.863933       1.862197       1.865672    
   2090     1.867414       1.865672       1.869159    
   2091     1.870907       1.869159       1.872659    
   2092     1.874414       1.872659       1.876173    
   2093     1.877934       1.876173       1.879699    
   2094     1.881468       1.879699       1.883239    
   2095     1.885014       1.883239       1.886792    
   2096     1.888574       1.886792       1.890359    
   2097     1.892148       1.890359       1.893939    
   2098     1.895735       1.893939       1.897533    
   2099     1.899335       1.897533       1.901141    
   2100     1.902950       1.901141       1.904762    
   2101     1.906578       1.904762       1.908397    
   2102     1.910220       1.908397       1.912046    
   2103     1.913876       1.912046       1.915709    
   2104     1.917546       1.915709       1.919386    
   2105     1.921230       1.919386       1.923077    
   2106     1.924928       1.923077       1.926782    
   2107     1.928640       1.926782       1.930502    
   2108     1.932367       1.930502       1.934236    
   2109     1.936108       1.934236       1.937984    
   2110     1.939864       1.937984       1.941748    
   2111     1.943635       1.941748       1.945525    
   2112     1.947420       1.945525       1.949318    
   2113     1.951220       1.949318       1.953125    
   2114     1.955034       1.953125       1.956947    
   2115     1.958864       1.956947       1.960784    
   2116     1.962709       1.960784       1.964637    
   2117     1.966568       1.964637       1.968504    
   2118     1.970443       1.968504       1.972387    
   2119     1.974334       1.972387       1.976285    
   2120     1.978239       1.976285       1.980198    
   2121     1.982161       1.980198       1.984127    
   2122     1.986097       1.984127       1.988072    
   2123     1.990050       1.988072       1.992032    
   2124     1.994018       1.992032       1.996008    
   2125     1.998002       1.996008       2.000000    
   2126     2.002002       2.000000       2.004008    
   2127     2.006018       2.004008       2.008032    
   2128     2.010050       2.008032       2.012072    
   2129     2.014099       2.012072       2.016129    
   2130     2.018163       2.016129       2.020202    
   2131     2.022245       2.020202       2.024292    
   2132     2.026342       2.024292       2.028398    
   2133     2.030457       2.028398       2.032520    
   2134     2.034588       2.032520       2.036660    
   2135     2.038736       2.036660       2.040816    
   2136     2.042901       2.040816       2.044990    
   2137     2.047083       2.044990       2.049180    
   2138     2.051282       2.049180       2.053388    
   2139     2.055498       2.053388       2.057613    
   2140     2.059732       2.057613       2.061856    
   2141     2.063983       2.061856       2.066116    
   2142     2.068252       2.066116       2.070393    
   2143     2.072539       2.070393       2.074689    
   2144     2.076843       2.074689       2.079002    
   2145     2.081166       2.079002       2.083333    
   2146     2.085506       2.083333       2.087683    
   2147     2.089864       2.087683       2.092050    
   2148     2.094241       2.092050       2.096436    
   2149     2.098636       2.096436       2.100840    
   2150     2.103050       2.100840       2.105263    
   2151     2.107481       2.105263       2.109705    
   2152     2.111933       2.109705       2.114165    
   2153     2.116402       2.114165       2.118644    
   2154     2.120891       2.118644       2.123142    
   2155     2.125398       2.123142       2.127660    
   2156     2.129925       2.127660       2.132196    
   2157     2.134472       2.132196       2.136752    
   2158     2.139037       2.136752       2.141328    
   2159     2.143623       2.141328       2.145923    
   2160     2.148228       2.145923       2.150538    
   2161     2.152853       2.150538       2.155172    
   2162     2.157497       2.155172       2.159827    
   2163     2.162162       2.159827       2.164502    
   2164     2.166847       2.164502       2.169197    
   2165     2.171553       2.169197       2.173913    
   2166     2.176279       2.173913       2.178649    
   2167     2.181025       2.178649       2.183406    
   2168     2.185792       2.183406       2.188184    
   2169     2.190581       2.188184       2.192982    
   2170     2.195390       2.192982       2.197802    
   2171     2.200220       2.197802       2.202643    
   2172     2.205072       2.202643       2.207505    
   2173     2.209945       2.207505       2.212389    
   2174     2.214839       2.212389       2.217295    
   2175     2.219756       2.217295       2.222222    
   2176     2.224694       2.222222       2.227171    
   2177     2.229654       2.227171       2.232143    
   2178     2.234637       2.232143       2.237136    
   2179     2.239642       2.237136       2.242152    
   2180     2.244669       2.242152       2.247191    
   2181     2.249719       2.247191       2.252252    
   2182     2.254791       2.252252       2.257336    
   2183     2.259887       2.257336       2.262444    
   2184     2.265006       2.262444       2.267574    
   2185     2.270148       2.267574       2.272727    
   2186     2.275313       2.272727       2.277904    
   2187     2.280502       2.277904       2.283105    
   2188     2.285714       2.283105       2.288330    
   2189     2.290951       2.288330       2.293578    
   2190     2.296211       2.293578       2.298851    
   2191     2.301496       2.298851       2.304147    
   2192     2.306805       2.304147       2.309469    
   2193     2.312139       2.309469       2.314815    
   2194     2.317497       2.314815       2.320186    
   2195     2.322880       2.320186       2.325581    
   2196     2.328289       2.325581       2.331002    
   2197     2.333722       2.331002       2.336449    
   2198     2.339181       2.336449       2.341920    
   2199     2.344666       2.341920       2.347418    
   2200     2.350176       2.347418       2.352941    
   2201     2.355713       2.352941       2.358490    
   2202     2.361275       2.358490       2.364066    
   2203     2.366864       2.364066       2.369668    
   2204     2.372479       2.369668       2.375297    
   2205     2.378121       2.375297       2.380952    
   2206     2.383790       2.380952       2.386635    
   2207     2.389486       2.386635       2.392344    
   2208     2.395210       2.392344       2.398082    
   2209     2.400960       2.398082       2.403846    
   2210     2.406739       2.403846       2.409639    
   2211     2.412545       2.409639       2.415459    
   2212     2.418380       2.415459       2.421308    
   2213     2.424242       2.421308       2.427185    
   2214     2.430134       2.427185       2.433090    
   2215     2.436054       2.433090       2.439024    
   2216     2.442003       2.439024       2.444988    
   2217     2.447980       2.444988       2.450980    
   2218     2.453988       2.450980       2.457002    
   2219     2.460025       2.457002       2.463054    
   2220     2.466091       2.463054       2.469136    
   2221     2.472188       2.469136       2.475248    
   2222     2.478315       2.475248       2.481390    
   2223     2.484472       2.481390       2.487562    
   2224     2.490660       2.487562       2.493766    
   2225     2.496879       2.493766       2.500000    
   2226     2.503129       2.500000       2.506266    
   2227     2.509410       2.506266       2.512563    
   2228     2.515723       2.512563       2.518892    
   2229     2.522068       2.518892       2.525253    
   2230     2.528445       2.525253       2.531646    
   2231     2.534854       2.531646       2.538071    
   2232     2.541296       2.538071       2.544529    
   2233     2.547771       2.544529       2.551020    
   2234     2.554278       2.551020       2.557545    
   2235     2.560819       2.557545       2.564103    
   2236     2.567394       2.564103       2.570694    
   2237     2.574003       2.570694       2.577320    
   2238     2.580645       2.577320       2.583979    
   2239     2.587322       2.583979       2.590674    
   2240     2.594034       2.590674       2.597403    
   2241     2.600780       2.597403       2.604167    
   2242     2.607562       2.604167       2.610966    
   2243     2.614379       2.610966       2.617801    
   2244     2.621232       2.617801       2.624672    
   2245     2.628121       2.624672       2.631579    
   2246     2.635046       2.631579       2.638522    
   2247     2.642008       2.638522       2.645503    
   2248     2.649007       2.645503       2.652520    
   2249     2.656043       2.652520       2.659575    
   2250     2.663116       2.659575       2.666667    
   2251     2.670227       2.666667       2.673797    
   2252     2.677376       2.673797       2.680965    
   2253     2.684564       2.680965       2.688172    
   2254     2.691790       2.688172       2.695418    
   2255     2.699055       2.695418       2.702703    
   2256     2.706360       2.702703       2.710027    
   2257     2.713704       2.710027       2.717391    
   2258     2.721088       2.717391       2.724796    
   2259     2.728513       2.724796       2.732240    
   2260     2.735978       2.732240       2.739726    
   2261     2.743484       2.739726       2.747253    
   2262     2.751032       2.747253       2.754821    
   2263     2.758621       2.754821       2.762431    
   2264     2.766252       2.762431       2.770083    
   2265     2.773925       2.770083       2.777778    
   2266     2.781641       2.777778       2.785515    
   2267     2.789400       2.785515       2.793296    
   2268     2.797203       2.793296       2.801121    
   2269     2.805049       2.801121       2.808989    
   2270     2.812939       2.808989       2.816901    
   2271     2.820874       2.816901       2.824859    
   2272     2.828854       2.824859       2.832861    
   2273     2.836879       2.832861       2.840909    
   2274     2.844950       2.840909       2.849003    
   2275     2.853067       2.849003       2.857143    
   2276     2.861230       2.857143       2.865330    
   2277     2.869441       2.865330       2.873563    
   2278     2.877698       2.873563       2.881844    
   2279     2.886003       2.881844       2.890173    
   2280     2.894356       2.890173       2.898551    
   2281     2.902758       2.898551       2.906977    
   2282     2.911208       2.906977       2.915452    
   2283     2.919708       2.915452       2.923977    
   2284     2.928258       2.923977       2.932551    
   2285     2.936857       2.932551       2.941176    
   2286     2.945508       2.941176       2.949852    
   2287     2.954210       2.949852       2.958580    
   2288     2.962963       2.958580       2.967359    
   2289     2.971768       2.967359       2.976191    
   2290     2.980626       2.976191       2.985075    
   2291     2.989537       2.985075       2.994012    
   2292     2.998501       2.994012       3.003003    
   2293     3.007519       3.003003       3.012048    
   2294     3.016591       3.012048       3.021148    
   2295     3.025719       3.021148       3.030303    
   2296     3.034901       3.030303       3.039514    
   2297     3.044140       3.039514       3.048780    
   2298     3.053435       3.048780       3.058104    
   2299     3.062787       3.058104       3.067485    
   2300     3.072197       3.067485       3.076923    
   2301     3.081664       3.076923       3.086420    
   2302     3.091190       3.086420       3.095975    
   2303     3.100775       3.095975       3.105590    
   2304     3.110420       3.105590       3.115265    
   2305     3.120125       3.115265       3.125000    
   2306     3.129890       3.125000       3.134796    
   2307     3.139717       3.134796       3.144654    
   2308     3.149606       3.144654       3.154574    
   2309     3.159558       3.154574       3.164557    
   2310     3.169572       3.164557       3.174603    
   2311     3.179650       3.174603       3.184713    
   2312     3.189793       3.184713       3.194888    
   2313     3.200000       3.194888       3.205128    
   2314     3.210273       3.205128       3.215434    
   2315     3.220612       3.215434       3.225806    
   2316     3.231018       3.225806       3.236246    
   2317     3.241491       3.236246       3.246753    
   2318     3.252033       3.246753       3.257329    
   2319     3.262643       3.257329       3.267974    
   2320     3.273322       3.267974       3.278688    
   2321     3.284072       3.278688       3.289474    
   2322     3.294893       3.289474       3.300330    
   2323     3.305785       3.300330       3.311258    
   2324     3.316750       3.311258       3.322259    
   2325     3.327787       3.322259       3.333333    
   2326     3.338898       3.333333       3.344482    
   2327     3.350084       3.344482       3.355705    
   2328     3.361345       3.355705       3.367003    
   2329     3.372681       3.367003       3.378378    
   2330     3.384095       3.378378       3.389831    
   2331     3.395586       3.389831       3.401361    
   2332     3.407155       3.401361       3.412969    
   2333     3.418803       3.412969       3.424658    
   2334     3.430532       3.424658       3.436426    
   2335     3.442341       3.436426       3.448276    
   2336     3.454232       3.448276       3.460208    
   2337     3.466204       3.460208       3.472222    
   2338     3.478261       3.472222       3.484321    
   2339     3.490402       3.484321       3.496504    
   2340     3.502627       3.496504       3.508772    
   2341     3.514939       3.508772       3.521127    
   2342     3.527337       3.521127       3.533569    
   2343     3.539823       3.533569       3.546099    
   2344     3.552398       3.546099       3.558719    
   2345     3.565062       3.558719       3.571429    
   2346     3.577817       3.571429       3.584229    
   2347     3.590664       3.584229       3.597122    
   2348     3.603604       3.597122       3.610108    
   2349     3.616637       3.610108       3.623188    
   2350     3.629764       3.623188       3.636364    
   2351     3.642987       3.636364       3.649635    
   2352     3.656307       3.649635       3.663004    
   2353     3.669725       3.663004       3.676471    
   2354     3.683241       3.676471       3.690037    
   2355     3.696858       3.690037       3.703704    
   2356     3.710575       3.703704       3.717472    
   2357     3.724395       3.717472       3.731343    
   2358     3.738318       3.731343       3.745318    
   2359     3.752345       3.745318       3.759398    
   2360     3.766478       3.759398       3.773585    
   2361     3.780718       3.773585       3.787879    
   2362     3.795066       3.787879       3.802281    
   2363     3.809524       3.802281       3.816794    
   2364     3.824092       3.816794       3.831418    
   2365     3.838772       3.831418       3.846154    
   2366     3.853565       3.846154       3.861004    
   2367     3.868472       3.861004       3.875969    
   2368     3.883495       3.875969       3.891051    
   2369     3.898635       3.891051       3.906250    
   2370     3.913894       3.906250       3.921569    
   2371     3.929273       3.921569       3.937008    
   2372     3.944773       3.937008       3.952569    
   2373     3.960396       3.952569       3.968254    
   2374     3.976143       3.968254       3.984064    
   2375     3.992016       3.984064       4.000000    
  2376     4.016064       4.000000       4.032258    
  2377     4.048583       4.032258       4.065041    
  2378     4.081633       4.065041       4.098361    
  2379     4.115226       4.098361       4.132231    
  2380     4.149378       4.132231       4.166667    
  2381     4.184101       4.166667       4.201681    
  2382     4.219409       4.201681       4.237288    
  2383     4.255319       4.237288       4.273504    
  2384     4.291845       4.273504       4.310345    
  2385     4.329004       4.310345       4.347826    
  2386     4.366812       4.347826       4.385965    
  2387     4.405286       4.385965       4.424779    
  2388     4.444445       4.424779       4.464286    
  2389     4.484305       4.464286       4.504505    
  2390     4.524887       4.504505       4.545455    
  2391     4.566210       4.545455       4.587156    
  2392     4.608295       4.587156       4.629630    
  2393     4.651163       4.629630       4.672897    
  2394     4.694836       4.672897       4.716981    
  2395     4.739336       4.716981       4.761905    
  2396     4.784689       4.761905       4.807693    
  2397     4.830918       4.807693       4.854369    
  2398     4.878049       4.854369       4.901961    
  2399     4.926108       4.901961       4.950495    
  2400     4.975124       4.950495       5.000000    
  2401     5.025126       5.000000       5.050505    
  2402     5.076142       5.050505       5.102041    
  2403     5.128205       5.102041       5.154639    
  2404     5.181347       5.154639       5.208333    
  2405     5.235602       5.208333       5.263158    
  2406     5.291005       5.263158       5.319149    
  2407     5.347594       5.319149       5.376344    
  2408     5.405406       5.376344       5.434783    
  2409     5.464481       5.434783       5.494505    
  2410     5.524862       5.494505       5.555555    
  2411     5.586592       5.555555       5.617978    
  2412     5.649717       5.617978       5.681818    
  2413     5.714286       5.681818       5.747127    
  2414     5.780347       5.747127       5.813953    
  2415     5.847953       5.813953       5.882353    
  2416     5.917160       5.882353       5.952381    
  2417     5.988024       5.952381       6.024096    
  2418     6.060606       6.024096       6.097561    
  2419     6.134969       6.097561       6.172840    
  2420     6.211180       6.172840       6.250000    
  2421     6.289308       6.250000       6.329114    
  2422     6.369427       6.329114       6.410256    
  2423     6.451613       6.410256       6.493506    
  2424     6.535948       6.493506       6.578948    
  2425     6.622517       6.578948       6.666667    
  2426     6.711410       6.666667       6.756757    
  2427     6.802721       6.756757       6.849315    
  2428     6.896552       6.849315       6.944445    
  2429     6.993007       6.944445       7.042253    
  2430     7.092198       7.042253       7.142857    
  2431     7.194244       7.142857       7.246377    
  2432     7.299270       7.246377       7.352941    
  2433     7.407407       7.352941       7.462687    
  2434     7.518797       7.462687       7.575758    
  2435     7.633588       7.575758       7.692307    
  2436     7.751938       7.692307       7.812500    
  2437     7.874016       7.812500       7.936508    
  2438     8.000000       7.936508       8.064516    
  2439     8.130081       8.064516       8.196721    
  2440     8.264462       8.196721       8.333333    
  2441     8.403361       8.333333       8.474576    
  2442     8.547009       8.474576       8.620689    
  2443     8.695652       8.620689       8.771930    
  2444     8.849558       8.771930       8.928572    
  2445     9.009009       8.928572       9.090909    
  2446     9.174312       9.090909       9.259259    
  2447     9.345795       9.259259       9.433962    
  2448     9.523809       9.433962       9.615385    
  2449     9.708738       9.615385       9.803922    
  2450     9.900990       9.803922       10.000000    
  2451     10.101010       10.000000       10.204082    
  2452     10.309278       10.204082       10.416667    
  2453     10.526316       10.416667       10.638298    
  2454     10.752688       10.638298       10.869565    
  2455     10.989011       10.869565       11.111111    
  2456     11.235955       11.111111       11.363636    
  2457     11.494253       11.363636       11.627907    
  2458     11.764706       11.627907       11.904762    
  2459     12.048193       11.904762       12.195122    
  2460     12.345679       12.195122       12.500000    
  2461     12.658228       12.500000       12.820513    
  2462     12.987013       12.820513       13.157895    
  2463     13.333333       13.157895       13.513514    
  2464     13.698630       13.513514       13.888889    
  2465     14.084507       13.888889       14.285714    
  2466     14.492754       14.285714       14.705882    
  2467     14.925373       14.705882       15.151515    
  2468     15.384615       15.151515       15.625000    
  2469     15.873015       15.625000       16.129032    
  2470     16.393442       16.129032       16.666666    
  2471     16.949152       16.666666       17.241379    
  2472     17.543859       17.241379       17.857143    
  2473     18.181818       17.857143       18.518518    
  2474     18.867924       18.518518       19.230770    
  2475     19.607843       19.230770       20.000000    
  2476     20.408163       20.000000       20.833334    
  2477     21.276596       20.833334       21.739130    
  2478     22.222221       21.739130       22.727272    
  2479     23.255814       22.727272       23.809525    
  2480     24.390244       23.809525       25.000000    
  2481     25.641026       25.000000       26.315790    
  2482     27.027027       26.315790       27.777779    
  2483     28.571428       27.777779       29.411764    
  2484     30.303030       29.411764       31.250000    
  2485     32.258064       31.250000       33.333332    
  2486     34.482758       33.333332       35.714287    
  2487     37.037037       35.714287       38.461540    
  2488     40.000000       38.461540       41.666668    
  2489     43.478260       41.666668       45.454544    
  2490     47.619049       45.454544       50.000000    
################################# 
#        PRESSURE  
# number of sampled pressure : 
 23
# sampled pressures (mb) : 
 0.01  
 0.07  
 0.25  
 0.40  
 0.63  
 1.00  
 1.58  
 2.51  
 3.98  
 6.31  
 10.00  
 15.80  
 25.10  
 39.80  
 63.10  
 100.00  
 158.00  
 251.00  
 398.00  
 487.00  
 631.00  
 802.00  
 1050.00  
################################# 
#        TEMPERATURE  
# number of sampled temperature : 
 7
# sampled temperature (K) : 
 190.00  
 191.00  
 225.00  
 260.00  
 295.00  
 329.00  
 330.00  
#          
